Sampling fequency [Hz]:	100	x-velocity [mm/s]: 	100	Track length [mm]:	10	Cycles:	9000
Fx	Fy	Fz	Tx	Ty	Tz	x-Position
0.025	2.016	-23.290	0.023	0.062	0.003	0.000
0.094	1.950	-23.524	0.026	0.066	0.000	0.000
0.169	1.827	-23.395	0.026	0.066	0.003	0.000
0.981	1.736	-23.013	0.026	0.088	0.003	0.000
0.811	1.187	-21.848	0.045	0.120	0.007	0.000
3.161	0.382	-22.969	0.068	0.101	0.016	131.000
7.274	0.167	-22.965	0.083	0.063	0.016	215.000
2.480	-0.879	-23.241	0.085	0.220	-0.018	368.000
5.298	-0.436	-22.618	0.089	0.214	0.015	434.000
5.815	-0.528	-24.044	0.083	0.241	0.005	704.000
7.172	-0.411	-23.126	0.083	0.258	0.018	843.000
5.875	-0.310	-24.615	0.084	0.241	0.007	843.000
9.585	0.091	-23.457	0.073	0.299	0.036	843.000
6.469	-0.644	-24.066	0.073	0.271	0.005	1839.000
8.934	-0.046	-22.773	0.074	0.315	0.027	2146.000
9.586	-0.539	-22.768	0.064	0.352	0.036	2146.000
10.852	0.406	-22.585	0.062	0.362	0.023	2146.000
11.411	-0.182	-22.688	0.075	0.359	0.021	3521.000
11.446	0.266	-20.232	0.066	0.378	0.041	3855.000
12.673	0.023	-19.074	0.066	0.382	0.040	3855.000
11.976	-0.187	-20.015	0.067	0.378	0.044	3855.000
13.031	-1.012	-17.374	0.071	0.397	0.009	5379.000
10.688	-0.325	-19.728	0.079	0.387	0.058	5789.000
13.099	-1.023	-16.594	0.076	0.402	0.028	6015.000
14.085	-0.850	-15.023	0.066	0.410	0.026	6015.000
14.605	-0.800	-13.873	0.060	0.416	0.040	6015.000
14.674	-0.395	-14.152	0.066	0.414	0.028	6015.000
13.546	-1.252	-13.250	0.065	0.427	0.043	7248.000
13.564	-0.872	-16.064	0.069	0.405	0.012	7374.000
9.436	-0.785	-18.271	0.075	0.407	0.041	7374.000
7.618	0.122	-22.700	0.083	0.380	0.001	7374.000
5.254	-0.170	-21.623	0.085	0.401	0.013	7861.000
3.998	-0.376	-22.408	0.081	0.403	-0.025	7890.000
6.541	-1.273	-23.119	0.077	0.383	0.010	7890.000
3.968	-0.195	-25.513	0.086	0.376	-0.005	7890.000
4.404	-0.436	-23.494	0.082	0.390	0.025	8000.000
3.342	-0.560	-25.575	0.077	0.379	-0.015	7999.000
-2.083	-0.154	-25.984	0.086	0.317	-0.001	7976.000
-8.178	-0.056	-25.732	0.076	0.149	-0.014	7976.000
0.773	1.448	-24.012	0.081	0.136	-0.004	7976.000
-8.070	-0.320	-25.399	0.083	0.199	-0.028	7634.000
-4.604	0.032	-22.194	0.077	0.166	-0.019	7634.000
-8.036	-0.247	-24.755	0.083	0.135	-0.022	7634.000
-7.026	-0.501	-22.252	0.073	0.104	-0.023	6972.000
-6.786	-0.865	-21.844	0.086	0.073	-0.024	6903.000
-9.001	0.058	-21.823	0.080	0.068	-0.039	6381.000
-6.534	-0.036	-21.990	0.070	0.091	-0.010	6301.000
-4.461	-0.571	-20.096	0.071	0.105	-0.031	6301.000
-3.733	-0.572	-22.217	0.079	0.104	-0.000	6301.000
-3.265	-0.279	-19.299	0.076	0.129	-0.014	6301.000
-4.374	0.085	-22.713	0.074	0.135	-0.029	4383.000
0.394	-0.061	-17.535	0.070	0.140	0.004	3923.000
-0.810	-0.869	-15.559	0.066	0.105	-0.023	3923.000
1.655	-0.152	-15.090	0.068	0.114	-0.012	3110.000
-2.832	-0.339	-16.759	0.053	0.040	0.012	2736.000
-1.559	0.267	-16.959	0.055	0.078	-0.022	2736.000
-2.302	-0.418	-15.765	0.072	0.053	-0.033	2736.000
0.031	-0.362	-12.379	0.052	0.029	0.012	2736.000
-0.241	-0.510	-12.344	0.056	0.043	-0.030	1165.000
-1.254	-0.532	-13.723	0.051	0.028	-0.015	883.000
-3.137	-0.217	-16.824	0.055	0.010	-0.001	715.000
-2.087	0.008	-16.964	0.065	-0.023	-0.016	507.000
-2.242	-0.189	-16.095	0.070	0.008	-0.007	437.000
-3.421	-0.399	-15.067	0.056	0.015	-0.010	437.000
-0.533	0.387	-14.000	0.052	-0.074	-0.011	437.000
-3.600	0.526	-15.259	0.060	0.062	-0.008	62.000
-1.190	-0.574	-16.076	0.059	-0.027	-0.003	62.000
-0.502	0.074	-17.326	0.071	0.011	-0.012	0.000
0.144	-0.143	-18.407	0.069	0.057	-0.008	0.000
1.759	-0.783	-18.441	0.076	0.076	-0.002	0.000
-0.974	-0.205	-18.165	0.059	0.039	0.007	0.000
-4.879	-1.161	-17.880	0.044	0.115	-0.020	246.000
6.915	0.550	-16.122	0.061	0.086	0.021	325.000
3.664	0.134	-21.207	0.061	0.151	-0.012	412.000
4.111	-0.223	-18.787	0.067	0.168	0.018	707.000
6.363	0.008	-22.562	0.073	0.228	0.015	963.000
7.238	-0.159	-21.755	0.069	0.247	0.006	963.000
7.901	0.079	-21.981	0.073	0.274	0.042	963.000
6.469	-0.485	-22.003	0.072	0.242	0.001	1887.000
8.111	-0.385	-22.206	0.072	0.300	0.039	2018.000
9.208	-0.425	-22.882	0.068	0.342	0.005	2603.000
11.257	0.064	-23.252	0.072	0.354	0.028	2984.000
9.465	-0.226	-23.197	0.070	0.364	0.044	3429.000
10.711	-0.077	-19.871	0.067	0.387	0.022	3589.000
11.070	-0.585	-20.014	0.066	0.382	0.061	4437.000
10.271	-0.547	-19.676	0.068	0.392	-0.013	4925.000
13.474	-0.633	-16.493	0.063	0.398	0.088	4925.000
11.998	-0.711	-17.865	0.066	0.398	-0.009	4925.000
13.879	-0.564	-15.384	0.066	0.407	0.048	6126.000
13.744	-0.580	-15.424	0.071	0.407	0.049	6446.000
12.397	-0.595	-15.877	0.076	0.411	0.028	6633.000
12.362	-0.814	-15.322	0.082	0.417	0.027	6872.000
12.877	-0.177	-15.999	0.077	0.406	0.058	7051.000
10.866	-0.747	-18.555	0.074	0.398	0.017	7051.000
6.228	-0.487	-21.225	0.076	0.400	-0.000	7590.000
5.721	-0.751	-22.853	0.080	0.387	0.046	7740.000
9.943	0.005	-23.269	0.074	0.363	-0.009	7740.000
5.753	-0.969	-22.156	0.073	0.362	0.052	7941.000
5.374	0.181	-24.028	0.082	0.370	-0.011	7974.000
2.616	-0.686	-23.470	0.075	0.378	0.027	8000.000
4.707	0.085	-22.107	0.074	0.372	0.003	8000.000
3.644	-0.342	-23.960	0.079	0.390	0.021	8000.000
4.907	-0.473	-23.472	0.072	0.388	-0.007	8000.000
4.380	-0.425	-23.551	0.080	0.389	0.021	8000.000
4.122	-0.502	-23.399	0.074	0.378	-0.001	8000.000
2.967	-0.329	-23.502	0.081	0.348	0.009	7998.000
-1.155	-0.198	-23.510	0.083	0.248	-0.004	7943.000
-7.627	-0.200	-24.048	0.062	0.269	-0.038	7889.000
0.792	0.747	-21.921	0.071	0.140	0.000	7754.000
-3.235	-1.099	-21.423	0.075	0.242	-0.031	7715.000
-1.041	-0.059	-21.180	0.085	0.206	-0.006	7715.000
-6.750	-0.710	-23.413	0.077	0.171	-0.042	7715.000
-4.226	-0.464	-19.487	0.081	0.115	-0.013	7019.000
-6.286	-0.362	-20.775	0.081	0.103	-0.027	6877.000
-5.468	-0.311	-19.626	0.074	0.106	-0.035	6575.000
-5.138	0.320	-19.783	0.061	0.114	0.006	6575.000
-4.688	-0.232	-19.974	0.062	0.116	-0.051	6575.000
-4.716	0.221	-19.967	0.072	0.129	-0.005	5319.000
-1.796	-0.024	-15.108	0.055	0.077	-0.004	5319.000
-0.874	-0.615	-16.005	0.051	0.108	-0.016	5319.000
-2.116	0.199	-17.074	0.062	0.105	0.008	4115.000
2.067	-0.193	-12.673	0.043	0.077	-0.056	3534.000
-2.126	-0.321	-16.461	0.065	0.071	0.048	3425.000
0.673	0.064	-11.848	0.037	0.092	-0.037	3425.000
1.986	-0.942	-12.983	0.062	0.065	0.006	3425.000
-2.718	0.459	-15.440	0.042	0.044	-0.000	1842.000
-0.400	-0.415	-11.785	0.050	0.035	-0.017	1551.000
-2.753	-0.750	-12.053	0.045	-0.022	-0.019	1254.000
-2.603	0.298	-14.050	0.044	0.006	0.015	1105.000
-3.276	-0.351	-13.492	0.042	-0.025	-0.041	739.000
-0.549	-0.105	-11.928	0.051	0.013	0.021	570.000
-2.303	-0.220	-15.547	0.053	0.016	-0.021	509.000
-0.507	0.062	-15.344	0.054	0.012	-0.004	509.000
0.007	0.309	-13.281	0.053	0.016	-0.007	509.000
-3.539	-0.074	-17.885	0.061	0.011	-0.018	48.000
-3.311	-0.414	-15.994	0.061	-0.063	-0.016	34.000
-1.600	0.231	-15.273	0.045	-0.021	0.002	34.000
-3.099	-0.286	-15.851	0.053	-0.015	-0.011	34.000
-1.357	-0.136	-17.497	0.062	0.003	-0.004	0.000
2.072	-0.369	-18.127	0.064	0.105	-0.012	30.000
0.827	-0.927	-18.722	0.082	0.035	0.010	93.000
-1.941	-0.163	-18.370	0.064	0.156	-0.018	93.000
3.147	0.899	-17.223	0.065	0.099	0.003	93.000
1.030	-0.326	-20.951	0.067	0.181	-0.006	394.000
5.039	-0.136	-19.476	0.065	0.153	0.018	523.000
5.568	-0.670	-21.374	0.068	0.201	0.017	523.000
6.267	-0.383	-20.945	0.069	0.233	0.005	523.000
7.483	-0.218	-21.417	0.067	0.254	0.030	1348.000
8.101	-0.191	-21.794	0.069	0.272	0.027	1647.000
8.597	-0.485	-22.458	0.065	0.300	0.014	1647.000
8.612	0.032	-22.401	0.071	0.290	0.032	1647.000
10.592	-0.261	-23.037	0.063	0.341	0.011	2859.000
10.605	-0.461	-21.041	0.070	0.359	0.034	3168.000
10.061	-0.144	-20.991	0.071	0.380	0.032	3611.000
11.777	-0.179	-18.742	0.063	0.390	0.028	3611.000
9.143	-0.507	-21.141	0.066	0.385	0.016	3611.000
13.421	-0.486	-17.531	0.067	0.392	0.024	5178.000
10.895	-0.259	-17.829	0.070	0.402	0.047	5178.000
13.479	-0.603	-16.415	0.076	0.401	0.033	5959.000
12.288	-0.769	-16.397	0.071	0.408	0.026	6052.000
14.002	-0.418	-15.301	0.063	0.407	0.043	6052.000
11.788	-1.122	-16.055	0.068	0.414	0.028	6052.000
12.581	-1.185	-15.482	0.072	0.414	0.037	7118.000
10.712	-0.642	-18.080	0.076	0.402	0.025	7329.000
9.517	-0.735	-18.570	0.072	0.404	0.026	7463.000
7.083	-0.326	-21.893	0.073	0.389	0.014	7689.000
4.892	-1.603	-23.446	0.068	0.389	0.010	7810.000
4.408	-1.216	-21.451	0.068	0.396	0.020	7810.000
8.296	-0.401	-23.016	0.078	0.374	-0.007	7810.000
4.385	-0.808	-22.860	0.075	0.386	0.024	7810.000
5.586	-0.023	-21.912	0.072	0.392	0.001	7810.000
4.594	-0.440	-23.061	0.068	0.392	0.026	8000.000
4.835	-0.472	-23.100	0.074	0.391	-0.001	8000.000
0.960	-0.486	-24.339	0.078	0.320	0.002	7973.000
-1.386	-0.296	-21.138	0.077	0.199	-0.010	7973.000
-3.637	-0.317	-22.325	0.079	0.151	-0.014	7815.000
-2.886	0.758	-21.821	0.082	0.184	-0.017	7668.000
-6.171	-0.509	-20.395	0.068	0.132	-0.012	7668.000
-4.838	0.262	-20.686	0.074	0.118	-0.029	7668.000
-6.893	-1.336	-20.093	0.069	0.116	-0.022	7051.000
-5.128	-0.110	-21.136	0.075	0.099	-0.021	7051.000
-4.761	-0.958	-18.408	0.075	0.115	-0.014	6514.000
-1.576	-0.702	-17.529	0.076	0.101	-0.016	6305.000
-2.871	-1.277	-16.738	0.071	0.085	-0.012	6305.000
-1.120	-0.030	-17.975	0.068	0.102	-0.013	6305.000
-0.922	-1.115	-17.735	0.069	0.134	0.001	5180.000
-3.978	-0.137	-22.326	0.065	0.111	-0.037	4705.000
-3.148	0.284	-17.992	0.070	0.128	0.013	4705.000
2.822	-1.206	-13.555	0.059	0.087	0.000	4705.000
-2.477	0.236	-18.175	0.049	0.104	-0.037	3133.000
1.089	-0.071	-13.319	0.065	0.094	0.033	2756.000
-0.230	-0.857	-13.004	0.048	0.046	-0.029	2756.000
0.002	0.065	-16.709	0.055	0.095	0.009	2756.000
-1.079	-0.136	-15.909	0.064	0.036	-0.007	1614.000
2.182	-0.886	-12.937	0.045	0.091	-0.027	1322.000
-1.056	-0.639	-16.581	0.065	0.026	0.004	1064.000
-0.707	-0.734	-14.987	0.047	0.039	-0.006	1064.000
-1.932	-0.508	-15.003	0.057	0.008	-0.021	1064.000
-0.218	-0.335	-11.707	0.050	0.027	0.011	444.000
-1.033	-0.263	-14.209	0.053	0.008	-0.015	316.000
-3.557	-1.333	-18.583	0.057	0.063	-0.016	149.000
1.281	-0.027	-14.679	0.061	-0.015	-0.003	95.000
-3.057	-0.227	-19.321	0.066	0.052	-0.026	53.000
-1.564	-0.395	-18.743	0.071	0.030	-0.001	53.000
-0.858	-0.258	-19.166	0.065	0.022	-0.019	0.000
-1.191	0.023	-19.425	0.071	0.037	-0.012	8.000
-1.451	-0.492	-18.683	0.064	0.101	0.002	8.000
0.452	-0.147	-20.390	0.051	0.114	0.012	8.000
-0.211	0.182	-19.358	0.072	0.134	-0.001	196.000
5.758	0.083	-20.249	0.075	0.176	0.007	339.000
5.587	-0.315	-20.739	0.081	0.215	0.010	339.000
7.912	-0.277	-21.952	0.072	0.196	0.012	339.000
6.461	-0.427	-21.156	0.072	0.256	0.031	1076.000
9.342	-0.273	-21.918	0.068	0.259	0.020	1076.000
8.197	-0.193	-22.715	0.070	0.296	0.009	1076.000
9.944	-0.314	-23.316	0.070	0.312	0.039	1076.000
9.583	-0.304	-22.723	0.073	0.366	0.014	1076.000
10.602	-0.130	-22.697	0.072	0.364	0.013	1076.000
10.878	-0.164	-21.246	0.076	0.373	0.062	3172.000
14.098	-0.794	-19.743	0.070	0.370	0.023	3608.000
11.161	-0.613	-20.997	0.069	0.375	0.022	4180.000
12.349	-0.999	-18.607	0.069	0.389	0.026	4396.000
14.957	-0.514	-15.989	0.064	0.396	0.040	4396.000
13.219	-0.493	-16.415	0.074	0.402	0.034	4396.000
16.014	-0.567	-13.937	0.073	0.407	0.062	5926.000
13.571	-0.663	-15.503	0.063	0.410	-0.012	6159.000
14.332	-0.609	-14.844	0.073	0.407	0.094	6520.000
13.368	-0.967	-15.119	0.081	0.414	-0.003	6882.000
13.204	-0.922	-15.013	0.079	0.413	0.071	7006.000
13.347	-0.611	-15.984	0.076	0.407	0.004	7006.000
10.513	-0.576	-17.311	0.082	0.408	0.050	7542.000
8.341	-0.890	-19.975	0.074	0.400	-0.002	7588.000
7.200	-1.372	-19.731	0.075	0.407	0.033	7798.000
3.596	-1.980	-21.750	0.078	0.411	-0.009	7897.000
11.264	0.166	-19.075	0.087	0.389	0.055	7962.000
6.210	-0.069	-20.814	0.089	0.402	0.032	7962.000
8.916	-0.425	-20.854	0.080	0.388	0.022	7962.000
6.919	-0.446	-21.868	0.078	0.391	0.006	7962.000
6.750	-0.585	-21.388	0.080	0.395	0.021	7998.000
1.834	0.169	-26.551	0.085	0.376	0.002	7946.000
-0.274	-0.811	-27.725	0.086	0.323	-0.018	7874.000
-0.537	2.090	-26.606	0.082	0.115	0.006	7874.000
-7.581	-0.199	-28.630	0.092	0.226	-0.031	7874.000
-4.820	-0.441	-23.469	0.086	0.137	-0.025	7874.000
-4.918	-0.183	-25.064	0.089	0.156	-0.018	7371.000
-7.994	-0.241	-24.891	0.087	0.123	-0.030	7371.000
-7.342	-0.403	-24.843	0.091	0.130	-0.035	7371.000
-7.029	-0.201	-25.344	0.092	0.070	-0.023	6715.000
-4.158	-0.803	-21.352	0.091	0.143	-0.016	6715.000
-3.907	-0.556	-21.193	0.089	0.136	-0.038	6715.000
-4.370	-0.070	-20.572	0.080	0.094	-0.004	5427.000
-1.498	-0.607	-18.967	0.078	0.109	-0.041	5287.000
-0.999	-1.184	-17.028	0.074	0.110	0.015	5287.000
-0.294	-0.019	-20.302	0.074	0.089	-0.030	5287.000
-2.863	-0.652	-23.787	0.076	0.179	-0.005	3736.000
-3.361	0.657	-19.019	0.084	0.075	0.004	3416.000
2.703	-1.226	-18.744	0.065	0.075	-0.039	3416.000
-3.241	-0.040	-19.749	0.069	0.028	0.017	2306.000
-3.484	0.108	-21.396	0.061	0.045	-0.031	2085.000
-2.322	-0.171	-16.685	0.072	0.033	0.001	2085.000
-0.680	-0.125	-16.666	0.060	0.067	-0.017	2085.000
-2.384	-0.340	-19.926	0.064	0.030	-0.006	996.000
-2.563	-0.736	-16.971	0.066	0.056	-0.024	931.000
-0.308	-0.209	-15.030	0.068	0.031	0.002	931.000
-1.005	-0.779	-16.181	0.059	0.016	-0.015	931.000
-1.050	-0.111	-16.044	0.063	0.019	-0.004	300.000
-5.066	0.077	-17.255	0.060	0.062	-0.019	214.000
-1.995	0.337	-18.299	0.071	0.044	-0.013	86.000
-1.426	-0.655	-15.587	0.056	0.020	0.000	13.000
-0.674	0.322	-17.852	0.063	0.002	-0.020	0.000
-3.264	-0.231	-17.032	0.060	-0.025	-0.004	0.000
-1.977	0.133	-16.271	0.056	-0.025	-0.001	0.000
-1.951	-0.308	-17.579	0.059	0.015	-0.007	2.000
0.343	-0.435	-18.815	0.067	0.099	0.002	27.000
0.797	0.038	-21.343	0.063	0.180	0.000	122.000
5.480	0.858	-21.760	0.081	0.085	0.020	183.000
5.896	-0.690	-22.078	0.077	0.218	0.001	183.000
8.218	-0.338	-21.442	0.086	0.246	0.018	590.000
8.037	-0.403	-23.530	0.075	0.267	0.008	738.000
9.346	-0.251	-22.706	0.073	0.276	0.050	738.000
10.020	-0.118	-22.663	0.073	0.296	0.007	738.000
10.970	-0.665	-23.825	0.069	0.344	0.042	1618.000
11.074	-0.185	-23.921	0.075	0.351	0.014	1905.000
11.394	-0.096	-21.562	0.077	0.368	0.042	2252.000
12.322	-0.338	-20.849	0.073	0.370	0.029	2252.000
11.840	-0.010	-20.553	0.078	0.373	0.059	2252.000
13.773	-0.579	-18.399	0.064	0.383	0.023	3670.000
13.229	-0.219	-18.926	0.069	0.381	0.033	3670.000
14.226	-0.308	-17.661	0.069	0.386	0.047	3670.000
15.736	-0.556	-15.470	0.069	0.397	0.028	5085.000
13.520	-0.405	-16.205	0.077	0.402	0.049	5229.000
16.724	-0.676	-13.501	0.072	0.407	0.064	5229.000
14.725	-0.663	-14.785	0.068	0.410	-0.013	5229.000
15.465	-0.289	-14.169	0.078	0.407	0.088	6561.000
13.508	-0.627	-16.296	0.086	0.403	-0.004	6724.000
13.074	-0.599	-15.370	0.083	0.411	0.057	6724.000
13.704	-0.858	-14.669	0.076	0.415	0.033	7241.000
11.944	-0.813	-17.489	0.078	0.400	0.037	7443.000
9.912	-0.576	-19.722	0.081	0.393	0.010	7443.000
5.179	-1.141	-18.123	0.077	0.431	0.028	7443.000
9.216	-1.114	-20.401	0.079	0.391	0.017	7897.000
9.720	0.152	-18.066	0.090	0.407	0.020	7897.000
9.337	-0.799	-19.538	0.080	0.397	0.031	7897.000
10.314	-0.381	-19.894	0.079	0.389	0.023	8000.000
7.081	-0.495	-22.158	0.082	0.387	0.012	7998.000
3.153	-0.588	-24.587	0.086	0.388	0.003	7957.000
-0.137	0.388	-27.334	0.093	0.328	0.006	7957.000
-12.489	-1.850	-28.021	0.059	0.246	-0.031	7957.000
-3.642	-0.069	-26.667	0.090	0.178	-0.014	7606.000
-4.902	-0.434	-26.332	0.086	0.190	-0.023	7606.000
-6.076	0.191	-25.238	0.091	0.157	-0.026	7606.000
-7.318	0.015	-26.898	0.086	0.105	-0.032	7606.000
-7.780	-0.293	-26.069	0.096	0.131	-0.035	6856.000
-7.223	-1.135	-25.123	0.092	0.066	-0.003	6856.000
-5.822	-0.279	-25.187	0.088	0.127	-0.058	6109.000
-9.186	-0.022	-24.353	0.090	0.115	0.003	5777.000
-6.494	-0.077	-23.028	0.081	0.098	-0.055	5777.000
-6.290	0.219	-23.620	0.074	0.100	-0.007	5777.000
-5.608	-0.119	-23.185	0.079	0.075	-0.038	4654.000
-4.412	-0.118	-19.965	0.074	0.094	0.010	4163.000
-0.098	-0.526	-18.486	0.072	0.061	-0.065	4163.000
-4.217	-0.679	-22.216	0.073	0.061	0.038	4163.000
-5.001	0.372	-19.605	0.062	0.064	-0.035	2672.000
-3.150	-0.543	-15.990	0.065	-0.010	-0.025	2564.000
-2.179	0.139	-17.173	0.067	-0.010	0.010	2564.000
-5.665	-0.098	-20.320	0.061	-0.024	-0.012	2564.000
-4.549	0.477	-18.502	0.068	-0.033	-0.023	1242.000
-3.459	-0.813	-15.579	0.054	0.009	-0.017	985.000
-3.470	0.306	-18.230	0.063	-0.004	-0.014	909.000
-1.510	0.044	-18.523	0.058	0.007	-0.024	909.000
-2.552	-0.406	-16.856	0.062	0.023	-0.003	909.000
0.017	-0.531	-14.319	0.059	0.017	-0.004	276.000
3.606	0.192	-15.536	0.058	-0.048	-0.001	122.000
-2.290	-0.568	-15.690	0.054	0.006	0.002	62.000
-2.574	0.435	-15.505	0.057	-0.034	-0.010	21.000
-2.872	-0.351	-14.138	0.040	0.003	-0.012	21.000
-3.066	0.004	-14.047	0.050	-0.036	0.000	21.000
-2.410	-0.262	-15.187	0.052	-0.008	-0.009	0.000
2.289	-0.487	-15.283	0.058	0.084	-0.001	27.000
2.322	-1.050	-19.215	0.084	0.044	0.001	27.000
3.901	-0.588	-19.915	0.070	0.199	0.013	27.000
4.428	-1.056	-19.214	0.052	0.126	0.004	281.000
5.396	0.095	-22.655	0.071	0.168	0.021	330.000
4.091	-0.213	-23.187	0.060	0.222	0.011	640.000
11.714	0.514	-22.428	0.068	0.271	0.044	811.000
10.638	-0.134	-23.325	0.069	0.357	0.033	897.000
13.778	-0.337	-22.111	0.066	0.351	0.027	897.000
12.007	-0.150	-21.702	0.073	0.363	0.053	897.000
13.555	-0.237	-21.063	0.070	0.362	0.005	2067.000
14.837	0.008	-19.614	0.070	0.365	0.061	2445.000
15.220	0.014	-18.752	0.068	0.371	0.042	2829.000
15.915	-0.480	-17.282	0.076	0.380	0.050	3262.000
15.560	-0.496	-19.882	0.075	0.361	0.029	3262.000
16.665	-0.430	-15.595	0.074	0.391	0.039	3262.000
14.996	-0.367	-17.706	0.076	0.381	0.063	4719.000
16.507	-0.532	-15.300	0.079	0.395	0.028	4837.000
15.283	-0.613	-15.425	0.081	0.399	0.056	4837.000
17.050	-0.879	-13.244	0.082	0.408	0.067	5692.000
17.714	-0.741	-12.089	0.077	0.416	0.019	5692.000
18.543	-0.454	-11.626	0.063	0.413	0.057	5692.000
16.815	-0.683	-12.175	0.069	0.419	0.036	6844.000
17.076	-0.469	-12.342	0.073	0.416	0.039	7025.000
15.408	-0.848	-14.803	0.084	0.404	0.047	7025.000
12.669	-0.852	-15.959	0.086	0.410	0.021	7025.000
12.884	-0.511	-17.629	0.089	0.393	0.046	7704.000
18.090	-0.172	-18.994	0.086	0.354	0.035	7737.000
11.394	-1.596	-14.545	0.077	0.429	0.024	7910.000
18.384	-0.780	-14.894	0.089	0.387	0.048	7978.000
11.314	-1.144	-17.750	0.086	0.402	0.026	7978.000
12.697	-0.872	-15.796	0.083	0.411	0.021	8000.000
9.656	-0.701	-19.081	0.092	0.399	0.029	7986.000
4.521	-0.338	-24.425	0.092	0.382	0.003	7986.000
1.037	-0.249	-28.422	0.095	0.294	-0.012	7986.000
-9.822	-0.683	-29.773	0.067	0.246	-0.020	7739.000
-9.822	0.589	-30.190	0.090	0.123	-0.023	7664.000
-5.803	-0.624	-27.689	0.088	0.179	-0.024	7393.000
-8.047	0.223	-27.359	0.102	0.119	-0.031	7221.000
-10.020	0.069	-28.087	0.084	0.101	-0.042	7221.000
-8.652	-0.634	-25.209	0.094	0.066	-0.039	7221.000
-9.660	-0.551	-26.353	0.085	0.117	-0.029	6380.000
-6.847	0.317	-25.704	0.088	0.061	-0.018	5969.000
-4.979	-0.534	-21.304	0.087	0.083	-0.032	5897.000
-5.019	-0.587	-22.030	0.076	0.074	0.007	5192.000
-5.125	-0.931	-19.995	0.071	0.063	-0.031	4776.000
-5.329	-0.179	-20.564	0.072	0.057	0.012	4634.000
-5.170	-0.743	-22.885	0.071	0.098	-0.046	4634.000
-7.222	-0.178	-19.558	0.074	0.022	0.040	4634.000
-4.025	-0.599	-15.806	0.055	-0.021	-0.059	3022.000
-4.264	0.167	-15.511	0.059	-0.036	-0.007	3022.000
-5.038	0.191	-17.150	0.063	0.005	-0.019	3022.000
-5.299	-0.311	-19.526	0.065	-0.014	-0.013	1751.000
-1.698	-0.692	-19.462	0.074	0.029	-0.022	1751.000
-0.300	-0.930	-15.039	0.070	0.029	0.002	1181.000
-3.349	0.042	-17.904	0.068	0.010	-0.024	943.000
-4.219	-0.147	-19.201	0.063	-0.036	-0.030	943.000
-4.098	-0.438	-16.750	0.068	-0.007	-0.008	487.000
-2.727	-0.316	-15.599	0.053	-0.040	-0.022	349.000
-1.103	0.534	-16.652	0.054	-0.040	-0.002	349.000
-4.140	0.413	-18.400	0.061	-0.024	-0.022	349.000
-2.627	-0.533	-16.219	0.050	-0.028	-0.004	38.000
-1.429	0.691	-16.430	0.046	0.033	-0.021	38.000
-2.857	-0.278	-18.822	0.061	0.028	-0.013	0.000
-0.664	0.350	-17.139	0.053	0.040	-0.007	12.000
2.067	-0.007	-16.919	0.064	0.027	0.009	12.000
-1.834	-0.460	-16.938	0.058	0.075	-0.013	12.000
5.153	-0.352	-19.816	0.050	0.096	0.023	12.000
3.245	-1.388	-18.765	0.051	0.204	0.021	353.000
8.884	0.695	-20.781	0.061	0.223	0.013	390.000
6.854	-0.180	-22.092	0.063	0.292	0.015	745.000
13.349	0.290	-21.462	0.067	0.357	0.057	996.000
12.602	0.080	-21.350	0.069	0.364	0.023	996.000
14.462	-0.214	-21.253	0.069	0.354	0.053	996.000
13.847	-0.070	-20.309	0.071	0.365	0.046	996.000
13.362	-0.294	-20.593	0.069	0.367	0.023	2150.000
15.310	-0.183	-18.890	0.068	0.370	0.041	2150.000
16.441	-0.601	-18.564	0.069	0.366	0.055	2949.000
15.430	-0.880	-17.159	0.067	0.385	0.030	3406.000
16.257	-0.785	-15.080	0.073	0.398	0.029	3406.000
15.865	-1.104	-17.416	0.075	0.379	0.075	3406.000
15.400	-0.568	-15.693	0.074	0.398	0.017	4930.000
15.712	-0.495	-14.518	0.079	0.405	0.043	5090.000
14.664	-0.665	-15.250	0.084	0.404	0.054	5776.000
18.399	-0.922	-11.593	0.072	0.416	0.039	5918.000
17.957	-0.453	-11.394	0.060	0.419	0.035	5918.000
17.613	-0.782	-11.096	0.061	0.423	0.047	6714.000
17.615	-0.932	-11.191	0.072	0.424	0.029	6787.000
15.102	-0.968	-13.201	0.087	0.419	0.050	6787.000
15.590	-0.847	-15.147	0.090	0.401	0.034	7442.000
11.684	-1.015	-16.694	0.093	0.409	0.031	7620.000
14.107	-0.884	-18.553	0.079	0.380	0.024	7662.000
14.581	0.201	-17.142	0.090	0.388	0.043	7662.000
10.732	-0.853	-14.630	0.081	0.432	0.005	7662.000
16.119	-0.852	-14.857	0.088	0.400	0.035	7975.000
11.509	-0.804	-16.921	0.092	0.408	0.023	8000.000
12.928	-0.829	-14.669	0.086	0.419	0.040	8000.000
12.458	-0.760	-16.327	0.090	0.408	0.018	7994.000
6.634	-0.512	-23.057	0.092	0.381	0.029	7984.000
3.121	-0.256	-28.159	0.099	0.358	-0.005	7984.000
-4.422	0.060	-31.616	0.098	0.284	-0.019	7984.000
-8.601	1.749	-30.079	0.084	0.163	-0.017	7984.000
-11.617	0.309	-31.280	0.090	0.143	-0.026	7469.000
-8.630	-0.186	-31.376	0.099	0.164	-0.026	7253.000
-9.680	-0.782	-29.874	0.098	0.147	-0.043	7253.000
-8.194	-0.779	-27.628	0.099	0.109	-0.033	6747.000
-8.881	0.065	-26.957	0.095	0.103	-0.032	6523.000
-7.938	-0.586	-24.950	0.086	0.082	-0.029	6523.000
-4.439	-0.441	-23.718	0.092	0.092	-0.028	6523.000
-6.610	-1.213	-25.198	0.095	0.101	-0.020	5456.000
-3.524	-0.231	-21.776	0.088	0.075	-0.037	5066.000
-1.832	-0.927	-22.197	0.082	0.072	-0.016	4663.000
-3.565	-1.045	-20.324	0.080	0.068	-0.011	4196.000
-2.852	-0.195	-23.845	0.080	0.063	-0.012	3725.000
-4.333	-0.263	-23.477	0.078	0.070	-0.020	3725.000
-3.822	-0.293	-20.177	0.081	0.083	-0.005	2768.000
-4.290	-0.910	-18.142	0.067	0.005	-0.018	2613.000
-2.215	-0.617	-18.392	0.064	-0.004	-0.003	2613.000
-4.863	-0.064	-21.940	0.073	0.008	-0.013	2613.000
-2.111	-0.501	-17.923	0.071	0.058	-0.010	1429.000
-1.358	-0.690	-16.908	0.071	0.031	-0.027	1429.000
-3.465	-0.251	-18.937	0.071	-0.021	-0.017	1429.000
-5.718	-0.220	-19.587	0.063	-0.048	-0.018	573.000
-5.683	0.165	-17.496	0.065	-0.057	-0.025	413.000
-3.291	-0.150	-15.980	0.059	-0.047	-0.012	413.000
-6.045	-1.128	-19.096	0.052	-0.007	-0.017	413.000
-0.338	0.450	-14.088	0.050	-0.053	-0.005	66.000
-4.017	0.455	-16.387	0.043	0.030	-0.039	50.000
-2.352	0.135	-16.490	0.051	0.005	-0.001	0.000
-1.675	0.101	-16.436	0.049	0.033	-0.016	2.000
2.545	0.074	-16.418	0.061	0.044	0.004	2.000
-1.981	-0.393	-16.015	0.055	0.077	-0.007	2.000
7.458	-0.057	-19.627	0.050	0.118	0.022	209.000
4.025	-1.681	-17.199	0.047	0.207	0.020	363.000
8.377	0.650	-19.284	0.062	0.215	0.020	511.000
9.793	-0.132	-22.735	0.060	0.348	0.034	511.000
15.614	0.252	-20.559	0.069	0.353	0.048	511.000
14.664	-0.029	-20.402	0.071	0.361	0.028	1108.000
16.913	-0.098	-20.548	0.071	0.346	0.062	1309.000
14.573	-0.235	-21.076	0.074	0.356	0.028	1309.000
16.197	-0.312	-18.838	0.071	0.366	0.037	2213.000
16.371	-0.427	-18.139	0.075	0.370	0.056	2636.000
17.775	-0.499	-18.028	0.074	0.365	0.029	2743.000
16.758	-0.978	-16.843	0.072	0.379	0.064	3456.000
18.592	-0.769	-13.233	0.070	0.401	0.038	3456.000
16.993	-0.227	-16.554	0.072	0.381	0.038	3456.000
18.015	-0.828	-13.528	0.072	0.401	0.057	4963.000
17.912	-0.402	-12.981	0.084	0.406	0.036	5323.000
16.931	-0.743	-14.715	0.094	0.396	0.058	5423.000
18.760	-0.952	-11.993	0.092	0.409	0.070	5423.000
18.422	-0.665	-11.482	0.078	0.416	0.035	5423.000
19.642	-0.777	-10.119	0.077	0.421	0.039	6724.000
19.998	-1.025	-9.512	0.074	0.424	0.055	7005.000
18.660	-1.081	-9.747	0.079	0.430	0.042	7005.000
17.525	-1.157	-13.645	0.086	0.403	0.033	7005.000
13.910	-0.843	-13.835	0.093	0.420	0.046	7623.000
16.521	-1.005	-16.199	0.082	0.387	0.038	7743.000
17.141	-0.219	-14.510	0.100	0.398	0.028	7812.000
12.543	-1.149	-13.577	0.086	0.431	0.023	7812.000
17.481	-1.133	-13.172	0.080	0.408	0.029	7812.000
13.005	-1.065	-16.482	0.097	0.404	0.023	8000.000
12.861	-0.813	-15.642	0.089	0.411	0.034	7998.000
6.130	-0.666	-22.253	0.099	0.392	0.001	7998.000
-3.473	-0.028	-34.307	0.100	0.341	0.003	7998.000
-2.073	1.645	-34.982	0.107	0.217	-0.007	7799.000
-11.617	-0.109	-34.594	0.112	0.229	-0.042	7663.000
-9.089	0.305	-32.188	0.107	0.142	-0.024	7663.000
-11.291	-0.012	-33.464	0.112	0.159	-0.044	7238.000
-9.381	-0.327	-30.523	0.105	0.114	-0.029	7029.000
-11.518	-0.167	-31.008	0.104	0.106	-0.042	7029.000
-10.036	-0.053	-29.845	0.107	0.075	-0.037	7029.000
-7.013	-0.396	-28.612	0.118	0.084	-0.044	6248.000
-9.585	-1.198	-28.291	0.101	0.083	-0.017	6022.000
-4.653	0.101	-26.598	0.110	0.076	-0.059	5398.000
-9.805	-0.982	-27.001	0.097	0.105	-0.019	5398.000
-6.019	0.746	-27.981	0.101	0.042	-0.044	4414.000
-5.400	-1.232	-25.262	0.094	0.131	0.005	4414.000
-5.010	-0.340	-21.994	0.083	-0.002	-0.049	4414.000
-5.764	-0.497	-22.620	0.085	0.010	-0.023	2940.000
-6.508	0.306	-22.152	0.076	-0.038	-0.026	2940.000
-3.643	-0.578	-25.475	0.086	0.030	0.002	2148.000
-7.509	-0.127	-24.209	0.090	-0.002	-0.040	1834.000
-4.170	0.230	-23.546	0.083	-0.020	-0.028	1834.000
-8.498	-0.755	-21.346	0.077	-0.042	-0.013	1153.000
-3.714	0.376	-17.754	0.070	-0.062	-0.045	930.000
-7.865	-0.034	-20.109	0.055	-0.105	-0.014	930.000
-6.721	0.035	-20.827	0.065	-0.096	0.005	485.000
-4.056	-0.102	-20.677	0.082	-0.034	-0.046	356.000
-5.561	-0.036	-17.828	0.079	-0.028	-0.017	260.000
-0.826	1.024	-16.127	0.063	-0.114	-0.002	260.000
-7.238	0.194	-18.516	0.055	0.018	-0.035	260.000
-3.695	0.013	-17.372	0.061	-0.078	-0.003	2.000
-3.077	0.264	-17.322	0.065	-0.054	-0.017	2.000
-3.499	-0.152	-16.412	0.055	-0.015	-0.016	2.000
-3.993	-0.012	-17.535	0.057	-0.043	-0.019	0.000
-3.597	0.010	-17.587	0.057	-0.035	-0.012	2.000
-3.113	-0.185	-18.543	0.059	-0.001	-0.003	2.000
3.889	-0.752	-20.712	0.069	0.181	-0.015	65.000
8.317	-0.453	-20.973	0.089	0.194	0.036	65.000
9.496	0.065	-21.966	0.093	0.225	0.011	353.000
9.923	-1.018	-21.225	0.072	0.340	0.015	353.000
16.092	0.038	-20.909	0.071	0.348	0.053	695.000
14.494	-0.880	-18.452	0.059	0.378	0.044	906.000
17.360	0.064	-19.134	0.056	0.357	0.035	1107.000
16.890	-0.139	-17.225	0.062	0.375	0.047	1379.000
17.060	-0.069	-19.150	0.068	0.358	0.041	1379.000
17.009	0.101	-18.255	0.069	0.366	0.040	1379.000
18.207	-0.146	-16.833	0.068	0.371	0.058	2326.000
16.473	-0.177	-17.991	0.070	0.371	0.039	2714.000
18.258	-0.371	-15.845	0.076	0.379	0.060	2714.000
17.278	-0.466	-16.132	0.076	0.384	0.022	2714.000
17.868	-0.418	-14.913	0.062	0.389	0.058	2714.000
19.348	-1.077	-13.180	0.067	0.398	0.021	2714.000
18.833	-0.167	-11.890	0.071	0.408	0.091	2714.000
19.081	-0.702	-11.547	0.064	0.413	0.014	5675.000
19.143	-0.658	-11.442	0.065	0.411	0.080	5798.000
19.466	-0.740	-10.952	0.078	0.416	0.030	5798.000
18.040	-1.149	-11.826	0.081	0.415	0.068	5798.000
17.438	-1.134	-12.914	0.089	0.410	0.042	6928.000
17.511	-1.210	-11.970	0.085	0.417	0.044	7178.000
16.023	-1.330	-12.143	0.081	0.424	0.038	7410.000
16.194	-0.970	-12.411	0.086	0.420	0.045	7465.000
15.448	-0.960	-15.434	0.089	0.400	0.022	7465.000
12.608	-1.815	-14.572	0.087	0.423	0.023	7465.000
16.450	-0.274	-15.924	0.097	0.389	0.044	7929.000
11.940	-0.996	-16.058	0.088	0.413	0.018	7983.000
17.193	-1.068	-12.582	0.086	0.414	0.038	7983.000
15.104	-0.948	-14.885	0.090	0.406	0.034	7998.000
10.173	-0.623	-19.048	0.100	0.397	0.018	7998.000
5.289	-0.533	-21.967	0.099	0.399	-0.001	7998.000
1.723	-0.771	-32.874	0.109	0.326	0.005	7832.000
-8.801	-0.498	-35.939	0.086	0.257	-0.014	7735.000
-8.684	2.091	-31.542	0.084	0.147	-0.026	7735.000
-11.918	-0.308	-35.197	0.106	0.191	-0.034	7735.000
-9.763	0.479	-31.717	0.114	0.140	-0.031	7735.000
-11.690	-0.396	-32.732	0.112	0.124	-0.032	7735.000
-11.057	-0.517	-31.223	0.117	0.117	-0.042	7735.000
-11.663	-0.523	-32.009	0.111	0.091	-0.063	6278.000
-10.035	-0.568	-30.889	0.106	0.043	-0.012	6278.000
-11.401	-0.176	-32.713	0.110	0.042	-0.057	5532.000
-10.133	0.157	-29.617	0.102	0.036	-0.028	5114.000
-5.988	-0.702	-25.680	0.100	0.123	-0.018	4972.000
-5.283	-0.877	-26.082	0.088	0.052	-0.046	4972.000
-6.047	-0.273	-27.804	0.090	0.070	0.023	4972.000
-6.316	-0.087	-26.463	0.097	0.060	-0.016	3573.000
-7.809	-0.731	-26.917	0.092	0.050	-0.062	2860.000
-2.084	0.261	-20.180	0.091	-0.004	0.008	2599.000
-7.368	-1.100	-21.645	0.076	-0.030	-0.052	2017.000
-5.774	-0.076	-21.043	0.073	-0.018	0.012	1689.000
-8.016	0.121	-24.172	0.073	-0.049	-0.030	1689.000
-3.867	-0.925	-21.274	0.069	0.029	-0.033	1689.000
-3.064	0.388	-20.479	0.093	-0.005	-0.030	1689.000
-4.737	-0.346	-21.373	0.083	-0.048	-0.005	666.000
-5.847	-0.229	-21.891	0.069	-0.028	-0.035	565.000
-3.745	0.515	-18.766	0.065	-0.027	-0.026	565.000
-1.973	0.118	-17.409	0.064	-0.057	0.000	565.000
-6.031	-0.385	-18.631	0.072	0.016	-0.033	565.000
-3.269	-0.207	-17.807	0.070	-0.074	-0.002	27.000
-2.886	0.052	-17.462	0.059	0.013	-0.033	3.000
-5.316	-0.372	-16.653	0.061	-0.049	-0.012	3.000
-4.567	-0.137	-16.736	0.058	-0.073	-0.011	3.000
-4.296	-0.123	-16.520	0.056	-0.043	-0.018	0.000
-3.099	-0.262	-18.501	0.068	-0.035	-0.012	0.000
1.061	-0.648	-17.527	0.066	0.069	-0.017	13.000
1.772	-1.132	-18.278	0.093	0.024	-0.001	13.000
9.115	-1.292	-16.406	0.083	0.172	0.035	149.000
8.390	-1.178	-19.973	0.056	0.235	0.017	149.000
10.648	0.154	-18.505	0.058	0.200	0.038	149.000
10.313	-0.385	-19.108	0.053	0.328	0.031	630.000
14.056	0.453	-20.656	0.067	0.322	0.056	857.000
13.741	-0.810	-19.143	0.065	0.378	0.016	1068.000
15.416	0.048	-20.552	0.064	0.354	0.068	1068.000
14.858	-0.042	-18.798	0.062	0.374	0.020	1068.000
15.286	-0.007	-19.196	0.068	0.367	0.050	1854.000
16.481	-0.420	-16.648	0.067	0.383	0.042	2219.000
17.735	-0.429	-15.238	0.055	0.387	0.068	2219.000
18.325	0.140	-13.817	0.048	0.397	0.027	2219.000
16.762	-0.190	-17.439	0.062	0.374	0.051	3645.000
18.863	-0.814	-14.008	0.075	0.392	0.046	3645.000
15.970	-0.365	-14.302	0.069	0.404	0.071	4724.000
17.845	-0.855	-13.211	0.070	0.405	0.023	5172.000
16.572	-0.687	-14.194	0.080	0.401	0.084	5172.000
17.529	-1.055	-12.672	0.089	0.412	0.032	5172.000
18.176	-0.932	-11.425	0.087	0.418	0.052	6302.000
18.679	-0.735	-10.738	0.076	0.421	0.033	6406.000
18.306	-0.534	-10.238	0.074	0.426	0.067	6882.000
17.107	-0.857	-12.309	0.082	0.417	0.019	7051.000
16.291	-0.554	-12.981	0.081	0.414	0.053	7051.000
15.968	-0.847	-11.482	0.085	0.430	0.032	7535.000
13.945	-0.945	-13.843	0.085	0.421	0.018	7535.000
14.999	0.274	-14.882	0.087	0.405	0.036	7535.000
15.172	-0.019	-14.478	0.092	0.408	0.025	7535.000
15.651	-0.983	-12.659	0.085	0.421	0.039	7535.000
13.458	-0.548	-15.976	0.086	0.405	0.036	8000.000
13.646	-0.984	-14.540	0.089	0.416	0.035	8000.000
12.476	-0.849	-16.851	0.090	0.403	0.020	8000.000
4.663	-0.192	-24.196	0.094	0.382	0.024	7935.000
1.613	-0.423	-31.278	0.098	0.335	-0.007	7859.000
-9.960	-1.288	-32.263	0.079	0.327	-0.028	7859.000
-10.151	0.632	-32.117	0.088	0.086	-0.009	7579.000
-13.715	-0.257	-33.559	0.097	0.122	-0.051	7524.000
-9.376	0.121	-32.558	0.112	0.131	-0.024	7524.000
-10.745	-0.450	-34.095	0.126	0.145	-0.058	7524.000
-10.007	-0.901	-30.500	0.108	0.095	-0.035	7524.000
-10.619	-0.346	-33.045	0.101	0.095	-0.037	6482.000
-10.328	-0.419	-31.064	0.115	0.064	-0.029	6021.000
-10.700	-0.321	-31.145	0.114	0.075	-0.041	5768.000
-5.054	-0.173	-28.409	0.112	0.117	-0.038	5768.000
-8.167	-1.134	-28.079	0.101	0.087	-0.016	5768.000
-0.489	-0.276	-23.767	0.103	0.089	-0.053	4364.000
-4.297	-1.755	-24.120	0.092	0.096	-0.008	4229.000
-3.083	0.053	-22.779	0.095	0.046	0.029	4229.000
-7.155	0.102	-24.872	0.082	0.006	-0.096	4229.000
-9.439	0.235	-24.716	0.086	0.021	0.030	2823.000
-5.344	0.769	-25.157	0.086	-0.005	-0.047	2823.000
-6.248	-0.863	-24.353	0.088	-0.029	-0.010	2823.000
-2.667	0.028	-20.298	0.081	-0.020	-0.006	1451.000
-5.704	-0.535	-18.599	0.063	-0.032	-0.045	1189.000
-8.535	0.802	-20.424	0.058	-0.074	-0.028	1110.000
-8.171	0.493	-22.761	0.071	-0.159	0.001	1110.000
-7.970	-0.778	-23.626	0.087	-0.054	-0.060	1110.000
-4.769	-0.503	-18.080	0.076	-0.064	-0.014	333.000
-4.700	-0.129	-19.785	0.073	-0.097	-0.016	255.000
-8.183	0.288	-21.973	0.076	-0.077	-0.045	255.000
-5.165	-0.641	-18.971	0.067	-0.105	-0.003	255.000
-4.674	-0.194	-18.529	0.070	-0.032	-0.043	3.000
-5.479	-0.673	-18.387	0.081	-0.027	-0.013	0.000
-3.792	-0.246	-18.132	0.071	-0.046	-0.022	0.000
-5.809	-0.478	-17.960	0.073	-0.062	-0.019	0.000
-4.772	-0.403	-18.136	0.068	-0.071	-0.016	7.000
-1.310	-1.053	-16.840	0.076	0.007	-0.007	31.000
-1.836	-1.411	-18.589	0.083	0.019	0.001	72.000
-0.446	-2.080	-19.504	0.064	0.268	-0.008	72.000
10.887	0.357	-19.324	0.073	0.241	0.039	72.000
11.654	0.183	-22.808	0.073	0.331	0.014	522.000
15.194	0.178	-20.482	0.071	0.356	0.058	582.000
16.551	-0.089	-16.284	0.073	0.386	0.025	582.000
16.751	0.280	-19.400	0.056	0.356	0.067	1254.000
17.109	-0.573	-17.028	0.058	0.377	0.030	1419.000
16.521	-0.260	-18.945	0.070	0.362	0.075	1737.000
18.960	0.045	-15.755	0.067	0.377	0.024	2250.000
18.570	-0.273	-16.004	0.064	0.376	0.066	2250.000
19.339	0.187	-14.817	0.057	0.382	0.043	3075.000
17.751	-0.297	-17.720	0.062	0.366	0.050	3075.000
19.302	-0.624	-12.172	0.090	0.405	0.066	3075.000
18.974	-0.226	-15.605	0.080	0.377	0.063	3075.000
19.316	-1.046	-13.027	0.066	0.399	0.034	4954.000
18.667	-0.788	-12.348	0.077	0.406	0.075	5284.000
19.015	-0.992	-11.751	0.087	0.411	0.040	5690.000
20.558	-0.541	-10.180	0.077	0.415	0.056	6107.000
20.455	-0.509	-10.195	0.073	0.416	0.039	6269.000
20.468	-0.473	-10.005	0.075	0.417	0.057	6269.000
19.881	-1.282	-9.326	0.073	0.427	0.051	6977.000
20.389	-0.595	-9.627	0.083	0.421	0.053	7177.000
19.121	-1.111	-10.811	0.084	0.419	0.028	7253.000
16.949	-0.894	-10.888	0.092	0.428	0.068	7585.000
17.355	-1.670	-13.051	0.088	0.410	0.030	7644.000
22.290	-0.160	-13.187	0.094	0.380	0.074	7644.000
18.325	-1.612	-11.327	0.088	0.418	0.062	7936.000
20.065	-0.981	-10.904	0.098	0.412	0.045	7962.000
16.201	-1.184	-11.808	0.093	0.426	0.040	7990.000
18.064	-0.804	-11.192	0.097	0.420	0.057	7990.000
17.356	-1.029	-11.573	0.096	0.422	0.034	8000.000
17.477	-0.768	-12.787	0.098	0.410	0.051	8000.000
13.064	-0.957	-14.677	0.101	0.419	0.018	7977.000
2.679	-0.570	-28.845	0.108	0.355	0.005	7910.000
-4.424	-0.071	-31.204	0.114	0.373	-0.018	7910.000
-7.207	2.010	-37.803	0.106	0.289	-0.020	7910.000
-14.402	0.081	-38.134	0.092	0.192	-0.044	7910.000
-10.648	0.456	-36.574	0.115	0.178	-0.037	7910.000
-11.726	-0.600	-36.894	0.124	0.190	-0.044	7054.000
-11.138	0.232	-37.523	0.136	0.143	-0.047	6916.000
-13.250	-0.585	-39.188	0.139	0.140	-0.038	6569.000
-10.883	-1.089	-35.197	0.128	0.091	-0.063	6168.000
-9.634	-0.609	-34.461	0.133	0.107	-0.026	6168.000
-13.603	0.214	-34.817	0.121	0.073	-0.061	6168.000
-12.358	-0.963	-33.972	0.126	0.042	-0.045	5118.000
-10.846	-0.956	-32.014	0.124	0.029	-0.044	4705.000
-5.072	-0.191	-30.013	0.104	0.001	-0.024	4443.000
-13.859	-0.193	-31.495	0.096	-0.038	-0.049	4443.000
-8.934	-0.082	-29.690	0.107	-0.016	0.018	4443.000
-14.737	0.039	-32.423	0.099	-0.092	-0.102	2771.000
-7.972	0.634	-27.263	0.096	-0.015	-0.019	2340.000
-12.132	-0.541	-25.959	0.090	-0.073	-0.045	1949.000
-9.337	0.053	-22.485	0.079	-0.073	-0.039	1949.000
-9.812	0.537	-22.946	0.076	-0.190	-0.009	1949.000
-10.744	-0.731	-22.780	0.079	-0.108	-0.049	1049.000
-8.041	0.180	-22.317	0.084	-0.106	-0.044	1049.000
-8.747	-0.410	-24.690	0.073	-0.114	-0.020	603.000
-9.625	-0.259	-24.011	0.077	-0.114	-0.032	514.000
-7.316	0.145	-23.069	0.088	-0.101	-0.050	263.000
-10.643	-1.254	-23.182	0.078	-0.109	-0.037	148.000
-7.678	0.123	-18.067	0.078	-0.156	-0.025	101.000
-8.531	-0.154	-20.842	0.073	-0.090	-0.033	101.000
-7.593	-0.512	-18.959	0.074	-0.117	-0.024	101.000
-5.189	-0.061	-20.594	0.078	-0.081	-0.027	0.000
-6.299	-0.348	-19.967	0.079	-0.071	-0.025	0.000
-6.537	-0.365	-20.077	0.073	-0.084	-0.032	0.000
-6.838	0.022	-20.261	0.073	-0.097	-0.018	0.000
-3.847	-0.673	-19.373	0.080	-0.064	-0.021	21.000
-2.717	-1.123	-19.799	0.103	0.022	0.008	52.000
4.835	-1.169	-19.598	0.088	-0.019	0.002	52.000
6.977	-2.580	-22.447	0.093	0.308	0.023	52.000
13.476	-1.122	-21.419	0.088	0.332	0.049	409.000
14.608	-0.262	-20.917	0.077	0.357	0.024	565.000
17.607	-0.310	-19.439	0.065	0.352	0.065	565.000
17.867	-0.179	-16.217	0.068	0.379	0.036	565.000
17.344	-0.017	-18.333	0.058	0.363	0.049	1385.000
17.821	-0.406	-16.815	0.069	0.374	0.053	1385.000
17.369	0.028	-18.300	0.071	0.363	0.049	1385.000
19.380	0.028	-14.947	0.063	0.381	0.043	2433.000
18.945	0.086	-15.297	0.062	0.380	0.057	2764.000
18.683	-0.297	-15.659	0.059	0.379	0.056	2764.000
18.127	-0.475	-15.819	0.076	0.380	0.054	2764.000
18.600	-0.554	-13.407	0.085	0.399	0.044	4137.000
19.591	-0.558	-13.895	0.074	0.388	0.074	4694.000
20.053	-0.759	-12.147	0.070	0.403	0.008	5116.000
20.277	-0.500	-11.544	0.079	0.403	0.106	5350.000
20.283	-0.963	-10.723	0.083	0.414	0.004	5914.000
20.395	-0.552	-10.901	0.081	0.409	0.078	6132.000
20.477	-1.026	-9.890	0.074	0.419	0.047	6497.000
20.080	-0.951	-10.153	0.074	0.419	0.035	6690.000
19.827	-0.992	-9.699	0.078	0.424	0.036	6690.000
18.389	-1.128	-10.429	0.084	0.425	0.058	6690.000
17.447	-0.925	-10.867	0.081	0.427	0.027	7500.000
16.954	-1.134	-10.952	0.088	0.428	0.054	7663.000
15.841	0.121	-11.997	0.101	0.425	0.041	7663.000
17.398	0.154	-14.920	0.103	0.392	0.042	7663.000
15.571	-2.142	-10.849	0.074	0.437	0.049	7968.000
17.661	-0.623	-9.374	0.094	0.438	0.036	7997.000
15.637	-1.065	-11.812	0.086	0.428	0.048	8000.000
17.007	-1.068	-11.651	0.091	0.422	0.049	8000.000
16.837	-0.891	-11.405	0.093	0.425	0.040	8000.000
16.320	-1.143	-12.877	0.092	0.416	0.042	7998.000
10.381	-0.313	-18.318	0.097	0.402	0.020	7939.000
5.271	-0.834	-26.252	0.098	0.363	0.002	7899.000
2.893	1.063	-35.028	0.119	0.300	-0.000	7899.000
-13.131	0.971	-39.877	0.077	0.203	-0.025	7635.000
-12.211	1.539	-38.355	0.101	0.133	-0.025	7553.000
-11.402	-0.122	-36.366	0.115	0.185	-0.058	7553.000
-11.642	-0.108	-35.494	0.125	0.141	-0.026	7553.000
-11.393	-0.551	-35.272	0.117	0.093	-0.050	6791.000
-10.662	-0.567	-32.631	0.126	0.126	-0.015	6469.000
-11.730	-0.082	-32.699	0.126	0.078	-0.080	6181.000
-7.254	-0.387	-29.680	0.113	0.080	-0.007	6181.000
-10.269	-1.391	-30.645	0.116	0.104	-0.075	6181.000
-4.401	0.707	-30.081	0.130	0.101	-0.037	5001.000
-13.322	-1.711	-30.704	0.102	0.077	-0.012	4630.000
-6.176	0.820	-28.441	0.096	0.001	-0.057	4167.000
-6.012	-1.218	-28.903	0.114	0.150	-0.037	4167.000
-3.070	0.575	-24.963	0.114	0.037	-0.035	4167.000
-5.032	-2.125	-24.470	0.091	0.037	0.003	2623.000
-6.106	-0.124	-23.726	0.098	-0.085	-0.008	2623.000
-6.320	0.523	-25.106	0.082	0.026	-0.059	1869.000
-8.279	-0.048	-23.105	0.089	0.014	-0.013	1685.000
-3.964	-0.325	-20.112	0.085	-0.047	-0.026	1468.000
-7.245	-0.624	-21.844	0.081	-0.045	-0.018	1468.000
-6.554	0.500	-22.360	0.070	-0.029	-0.058	1468.000
-7.881	-0.793	-24.510	0.084	-0.120	0.004	571.000
-6.794	-0.706	-22.639	0.081	-0.075	-0.023	420.000
-6.006	-0.120	-19.527	0.072	-0.094	-0.038	420.000
-7.730	-0.100	-18.322	0.079	-0.036	-0.033	125.000
-5.928	-0.214	-19.556	0.071	-0.041	-0.035	101.000
-4.829	-0.805	-17.717	0.064	-0.039	-0.014	101.000
-4.242	0.065	-19.395	0.074	-0.064	-0.023	101.000
-6.664	-0.271	-18.962	0.069	-0.086	-0.022	0.000
-5.269	-0.222	-17.446	0.061	-0.090	-0.017	0.000
-4.772	-0.145	-18.199	0.072	-0.068	-0.017	14.000
-0.757	-1.110	-18.547	0.087	0.004	-0.004	39.000
-1.659	-1.442	-19.216	0.082	0.043	-0.001	39.000
-0.038	-2.151	-21.268	0.078	0.267	-0.007	233.000
13.155	0.512	-21.180	0.081	0.285	0.037	347.000
13.794	-0.048	-23.017	0.083	0.344	0.025	347.000
15.639	-0.212	-20.404	0.069	0.355	0.055	347.000
17.132	-0.191	-16.839	0.073	0.378	0.025	921.000
17.876	-0.315	-19.003	0.064	0.354	0.077	1170.000
17.488	-0.367	-17.615	0.061	0.370	0.028	1375.000
17.605	-0.170	-18.659	0.069	0.358	0.074	1375.000
19.613	-0.243	-15.657	0.061	0.375	0.033	2210.000
18.172	-0.299	-17.155	0.060	0.369	0.046	2557.000
19.638	-0.495	-14.750	0.071	0.382	0.051	3031.000
17.996	-0.039	-17.152	0.077	0.369	0.056	3479.000
19.417	-0.900	-13.716	0.073	0.391	0.065	3479.000
18.268	-0.480	-16.404	0.080	0.375	0.040	4161.000
19.697	-0.583	-11.670	0.075	0.407	0.058	4516.000
18.769	-0.727	-13.887	0.078	0.393	0.074	4516.000
17.119	-0.874	-14.642	0.090	0.398	-0.001	5681.000
19.208	-0.887	-12.575	0.096	0.400	0.119	5952.000
18.326	-1.153	-12.834	0.086	0.408	-0.022	6328.000
19.461	-0.646	-10.105	0.090	0.420	0.100	6750.000
19.661	-1.178	-10.191	0.079	0.422	0.010	6750.000
19.483	-0.474	-11.581	0.090	0.407	0.105	6750.000
17.391	-0.711	-12.538	0.086	0.415	-0.004	7454.000
17.636	-1.132	-10.476	0.090	0.428	0.081	7622.000
18.617	-1.682	-11.754	0.084	0.414	0.023	7758.000
21.793	0.175	-11.846	0.097	0.393	0.076	7840.000
18.316	-1.634	-11.687	0.080	0.415	0.059	7918.000
20.346	-0.680	-10.330	0.093	0.416	0.044	7918.000
16.565	-0.995	-11.386	0.092	0.426	0.057	7918.000
17.836	-0.849	-11.610	0.093	0.418	0.038	8000.000
12.375	-0.518	-16.425	0.093	0.406	0.048	8000.000
10.188	-0.965	-21.521	0.098	0.378	-0.008	8000.000
-0.245	-0.724	-29.071	0.111	0.368	0.009	7881.000
-5.598	-0.378	-35.079	0.096	0.300	-0.023	7701.000
-14.195	0.026	-34.545	0.085	0.178	-0.036	7616.000
-13.450	0.215	-35.593	0.106	0.141	-0.050	7616.000
-10.734	0.317	-33.013	0.110	0.128	-0.039	7616.000
-13.540	-0.381	-33.585	0.116	0.093	-0.040	6981.000
-9.740	-0.526	-31.651	0.120	0.052	-0.041	6787.000
-9.433	-0.442	-28.725	0.106	0.088	-0.019	6787.000
-9.168	-0.951	-28.183	0.106	0.102	-0.063	6787.000
-6.316	-0.444	-25.897	0.107	0.056	-0.011	5615.000
-7.911	-2.086	-29.789	0.103	0.160	-0.038	5404.000
-4.540	0.450	-26.767	0.120	0.102	-0.053	4800.000
-8.285	-0.963	-25.221	0.084	0.075	-0.002	4289.000
-0.726	0.762	-24.916	0.090	0.004	-0.033	3964.000
-4.454	-1.851	-24.432	0.098	0.085	0.008	3964.000
-5.441	-0.280	-25.373	0.084	0.048	-0.053	2913.000
-5.429	0.101	-24.474	0.091	0.031	-0.033	2795.000
-7.484	-0.248	-22.766	0.084	-0.004	-0.003	2795.000
-5.440	-0.079	-21.540	0.069	-0.121	-0.031	2795.000
-4.293	-0.083	-20.943	0.081	0.031	-0.010	1397.000
-5.162	0.006	-21.733	0.080	0.032	-0.046	1306.000
-4.231	-0.219	-21.948	0.086	-0.047	0.008	1306.000
-5.873	-0.347	-19.792	0.074	-0.041	-0.046	1306.000
-7.223	0.623	-20.702	0.069	-0.065	-0.046	1306.000
-6.984	-0.510	-22.539	0.076	-0.117	0.000	331.000
-4.402	-0.296	-20.186	0.068	-0.111	-0.025	245.000
-9.578	-1.427	-18.661	0.060	-0.011	-0.023	245.000
-3.348	0.659	-18.268	0.075	-0.159	-0.013	245.000
-5.135	-0.489	-19.600	0.069	-0.025	-0.027	2.000
-6.121	-0.117	-18.992	0.073	-0.075	-0.019	2.000
-5.137	-0.274	-20.134	0.075	-0.073	-0.019	1.000
-4.404	-0.473	-20.535	0.080	-0.014	-0.013	37.000
3.529	-1.075	-22.278	0.090	0.166	-0.021	55.000
10.264	-0.128	-22.038	0.102	0.161	0.024	55.000
14.478	0.147	-22.915	0.106	0.341	0.024	55.000
13.578	-1.316	-20.209	0.075	0.370	0.025	55.000
18.620	0.338	-18.061	0.083	0.359	0.046	605.000
16.859	-0.855	-17.401	0.057	0.374	0.050	854.000
19.052	0.112	-16.898	0.068	0.366	0.056	1111.000
17.967	-0.481	-16.143	0.063	0.379	0.037	1486.000
18.465	0.036	-16.553	0.066	0.372	0.051	1486.000
18.271	-0.316	-17.640	0.064	0.364	0.057	2196.000
20.830	-0.080	-14.523	0.063	0.377	0.044	2535.000
18.570	-0.006	-14.728	0.067	0.387	0.052	2988.000
19.655	0.058	-15.249	0.076	0.376	0.060	2988.000
20.157	-0.088	-14.073	0.072	0.384	0.056	3864.000
19.880	-0.737	-13.888	0.067	0.388	0.046	4404.000
21.819	-0.607	-12.431	0.077	0.389	0.057	4635.000
19.804	-0.375	-10.401	0.074	0.416	0.074	5035.000
20.793	-1.105	-10.770	0.078	0.411	0.024	5035.000
21.562	-0.687	-9.941	0.065	0.411	0.065	6055.000
21.134	-0.578	-9.688	0.071	0.416	0.057	6276.000
19.261	-1.160	-11.677	0.077	0.410	0.043	6714.000
20.212	-0.847	-9.897	0.086	0.419	0.065	6859.000
20.498	-1.491	-9.067	0.082	0.427	0.031	7102.000
20.511	-1.485	-8.337	0.078	0.431	0.061	7102.000
20.989	-1.230	-8.145	0.081	0.431	0.041	7102.000
19.979	-0.851	-10.217	0.096	0.419	0.046	7730.000
15.958	-1.725	-8.784	0.093	0.454	0.022	7822.000
22.462	-0.013	-9.066	0.103	0.413	0.072	7926.000
16.123	-1.569	-10.151	0.100	0.441	0.032	7926.000
22.574	-1.162	-7.996	0.096	0.424	0.045	8000.000
20.320	-1.188	-9.522	0.093	0.423	0.052	8000.000
19.816	-0.991	-9.426	0.096	0.426	0.044	8000.000
19.858	-1.294	-9.668	0.095	0.424	0.058	8000.000
15.673	-0.967	-14.151	0.108	0.409	0.039	7989.000
11.156	-0.446	-18.874	0.106	0.393	0.012	7989.000
3.671	-1.068	-30.118	0.117	0.339	0.003	7989.000
-6.401	-0.942	-38.271	0.117	0.325	-0.015	7989.000
-16.458	0.730	-38.171	0.073	0.163	-0.045	7561.000
-17.123	0.983	-41.128	0.112	0.151	-0.051	7450.000
-11.386	0.492	-39.770	0.139	0.144	-0.036	7143.000
-13.158	-0.523	-36.769	0.137	0.142	-0.045	6883.000
-13.231	-0.605	-34.337	0.124	0.079	-0.040	6710.000
-8.166	-0.395	-31.309	0.125	0.093	-0.051	6710.000
-13.571	0.316	-33.588	0.123	0.043	-0.037	6710.000
-12.465	-0.933	-32.653	0.118	0.065	-0.072	5641.000
-11.297	0.111	-31.899	0.122	0.050	-0.012	5316.000
-6.604	-0.754	-30.476	0.113	0.060	-0.021	5316.000
-8.168	-0.644	-29.549	0.097	0.017	-0.047	5316.000
-6.727	-1.559	-28.675	0.108	0.095	-0.006	4031.000
-3.670	-0.651	-25.707	0.103	0.065	-0.048	3339.000
-6.705	-0.797	-27.540	0.084	0.021	-0.008	3219.000
-8.541	-0.130	-26.788	0.087	-0.079	-0.016	2590.000
-7.052	0.778	-27.544	0.097	0.015	-0.042	2142.000
-7.969	0.031	-24.218	0.102	0.014	-0.046	1828.000
-4.514	-0.230	-23.032	0.098	-0.053	0.002	1828.000
-6.560	-0.686	-23.845	0.082	-0.013	-0.050	1828.000
-5.715	0.541	-24.463	0.089	-0.049	-0.016	904.000
-7.586	-0.545	-25.582	0.088	-0.096	-0.048	904.000
-9.528	-0.584	-24.688	0.091	-0.092	-0.015	470.000
-7.127	0.253	-22.554	0.086	-0.113	-0.028	322.000
-3.529	-0.036	-19.420	0.078	-0.113	-0.052	194.000
-11.039	-0.317	-20.822	0.072	-0.034	-0.028	194.000
-6.497	0.672	-18.992	0.076	-0.181	-0.027	194.000
-7.685	-0.277	-21.229	0.071	-0.071	-0.035	10.000
-8.563	-0.062	-19.075	0.070	-0.115	-0.022	10.000
-7.968	-0.127	-19.208	0.069	-0.130	-0.028	10.000
-6.829	-0.187	-18.868	0.070	-0.117	-0.025	1.000
-2.590	-0.539	-19.617	0.081	0.001	-0.019	1.000
0.861	-1.272	-18.879	0.104	0.076	-0.014	1.000
5.525	-1.967	-18.662	0.126	0.157	0.023	180.000
9.810	0.482	-20.867	0.085	0.341	0.018	281.000
11.501	-0.697	-21.322	0.072	0.298	0.048	281.000
15.454	0.179	-19.863	0.074	0.361	0.035	281.000
13.812	-1.148	-19.665	0.057	0.371	0.062	823.000
18.445	0.187	-17.576	0.067	0.364	0.039	1071.000
16.965	-0.364	-16.434	0.065	0.381	0.058	1071.000
19.518	-0.004	-16.376	0.067	0.369	0.030	1071.000
18.170	0.008	-16.019	0.060	0.378	0.067	2088.000
19.460	-0.405	-15.524	0.064	0.375	0.063	2358.000
19.090	0.060	-14.166	0.063	0.388	0.061	2358.000
20.884	-0.421	-13.196	0.061	0.388	0.045	2358.000
19.462	0.057	-13.668	0.062	0.391	0.058	3823.000
19.274	-1.023	-12.613	0.062	0.403	0.015	4332.000
19.546	-0.154	-13.793	0.077	0.388	0.086	4603.000
20.849	-1.084	-10.555	0.075	0.411	0.061	4603.000
19.010	-0.665	-12.219	0.072	0.407	0.031	4603.000
19.505	-0.854	-11.404	0.073	0.410	0.067	6000.000
20.251	-0.886	-11.287	0.083	0.408	0.059	6093.000
19.024	-1.157	-11.341	0.082	0.413	0.067	6093.000
18.729	-1.038	-12.166	0.096	0.409	0.041	6093.000
16.544	-1.281	-12.417	0.102	0.418	0.051	7142.000
15.499	-1.259	-12.388	0.096	0.424	0.057	7385.000
17.781	-0.766	-11.826	0.083	0.417	0.031	7385.000
16.456	-1.480	-10.903	0.080	0.433	0.029	7385.000
11.655	-2.032	-7.634	0.084	0.486	0.039	7842.000
20.923	-0.378	-9.360	0.096	0.421	0.036	7903.000
15.177	-1.329	-7.645	0.082	0.466	0.048	7942.000
19.021	-1.056	-11.401	0.088	0.414	0.049	7942.000
17.571	-0.948	-11.589	0.089	0.420	0.041	7942.000
18.467	-1.059	-9.632	0.100	0.432	0.036	7996.000
11.717	-0.976	-19.319	0.098	0.386	0.041	7988.000
7.001	-0.561	-24.294	0.102	0.370	0.005	7988.000
-2.739	0.164	-33.887	0.116	0.341	-0.011	7988.000
-8.091	1.837	-34.509	0.093	0.221	-0.020	7672.000
-16.569	-0.163	-36.991	0.103	0.136	-0.034	7537.000
-10.716	0.054	-33.670	0.118	0.105	-0.031	7537.000
-12.137	-1.033	-34.922	0.117	0.148	-0.046	7537.000
-11.613	0.047	-33.473	0.119	0.105	-0.044	6808.000
-12.277	-0.372	-34.205	0.116	0.120	-0.060	6808.000
-12.640	0.341	-34.069	0.130	0.067	-0.033	6808.000
-11.512	-0.257	-32.288	0.123	0.066	-0.083	5827.000
-7.705	0.055	-32.425	0.123	0.061	-0.005	5668.000
-10.674	-1.958	-32.873	0.107	0.142	-0.057	5050.000
-9.380	1.278	-28.371	0.106	0.021	-0.049	4638.000
-11.672	-0.520	-29.660	0.096	0.097	-0.028	4638.000
-5.646	0.486	-27.969	0.112	-0.035	-0.007	4638.000
-7.285	-1.299	-26.748	0.096	0.058	-0.067	3350.000
-4.133	0.410	-23.274	0.106	0.005	-0.004	3061.000
-6.869	-0.425	-28.232	0.079	-0.021	-0.007	2415.000
-7.232	-0.599	-27.287	0.083	-0.007	-0.034	1917.000
-4.587	1.026	-23.117	0.087	0.007	-0.046	1700.000
-4.770	-0.150	-21.159	0.074	-0.047	-0.023	1700.000
-5.572	-0.401	-20.231	0.083	-0.059	-0.028	1060.000
-5.885	-0.356	-19.216	0.073	-0.045	-0.026	837.000
-9.785	0.405	-17.412	0.037	-0.119	-0.022	837.000
-8.466	0.335	-17.919	0.060	-0.175	-0.032	837.000
-7.863	-0.353	-19.484	0.081	-0.126	-0.015	837.000
-9.220	-1.554	-20.787	0.073	-0.087	-0.040	146.000
-3.310	-0.195	-16.542	0.072	-0.125	-0.012	78.000
-7.193	0.107	-18.598	0.067	-0.053	-0.039	22.000
-5.485	-0.700	-18.574	0.074	-0.059	-0.024	22.000
-5.226	-0.240	-19.719	0.084	-0.071	-0.023	22.000
-6.575	-0.239	-18.352	0.073	-0.088	-0.027	0.000
-7.229	-0.347	-19.188	0.066	-0.118	-0.023	0.000
-2.593	-0.273	-18.384	0.076	-0.011	-0.015	4.000
-0.106	-1.302	-19.796	0.099	-0.013	-0.008	4.000
4.085	-2.110	-17.983	0.103	0.156	0.017	4.000
9.981	-2.028	-20.799	0.071	0.273	0.038	271.000
11.153	0.327	-19.369	0.080	0.307	0.021	430.000
12.372	-1.289	-20.833	0.065	0.369	0.059	466.000
16.544	0.752	-20.527	0.065	0.348	0.046	818.000
14.942	-1.060	-18.392	0.062	0.377	0.034	818.000
16.416	0.147	-19.972	0.069	0.354	0.065	1372.000
16.063	-0.121	-17.105	0.063	0.381	0.035	1633.000
17.610	-0.130	-18.217	0.065	0.363	0.046	1633.000
18.933	-0.308	-15.270	0.062	0.381	0.047	1633.000
18.537	-0.265	-16.555	0.058	0.372	0.049	2928.000
19.359	-0.390	-13.214	0.053	0.396	0.058	3319.000
18.100	0.172	-14.335	0.064	0.393	0.049	3439.000
19.148	-0.482	-15.143	0.070	0.381	0.041	3439.000
18.291	-0.315	-13.705	0.076	0.397	0.052	3439.000
20.185	-0.294	-11.206	0.071	0.408	0.061	5015.000
18.503	-0.510	-13.126	0.075	0.401	0.053	5576.000
18.055	-0.802	-13.156	0.082	0.403	0.074	5576.000
16.485	-0.794	-12.453	0.094	0.420	0.010	6204.000
17.899	-0.732	-12.898	0.095	0.405	0.102	6536.000
17.781	-1.372	-11.253	0.086	0.424	0.003	6801.000
18.047	-0.636	-11.531	0.091	0.416	0.078	6801.000
17.164	-0.686	-13.858	0.091	0.403	0.031	6801.000
17.295	-1.022	-10.983	0.085	0.426	0.053	7503.000
18.915	-0.608	-11.557	0.078	0.413	0.045	7700.000
22.476	0.140	-14.711	0.104	0.366	0.060	7700.000
16.887	-2.025	-11.375	0.090	0.427	0.029	7700.000
22.944	-0.665	-9.278	0.085	0.410	0.059	7971.000
17.243	-1.019	-10.017	0.081	0.435	0.047	8000.000
18.177	-0.862	-11.769	0.091	0.415	0.047	8000.000
15.287	-1.267	-14.061	0.098	0.412	0.039	8000.000
8.655	-0.681	-20.385	0.099	0.393	0.031	8000.000
-5.398	-0.082	-32.124	0.105	0.371	-0.026	7866.000
-5.951	0.911	-34.027	0.101	0.233	-0.019	7759.000
-15.870	1.282	-34.861	0.076	0.187	-0.031	7681.000
-12.076	0.239	-34.488	0.099	0.171	-0.048	7681.000
-10.574	-0.375	-34.469	0.116	0.132	-0.044	7173.000
-9.595	-0.599	-30.970	0.110	0.102	-0.037	6891.000
-10.123	-0.427	-33.435	0.125	0.095	-0.048	6799.000
-7.634	-0.400	-29.441	0.125	0.097	-0.034	6799.000
-14.495	-1.131	-32.125	0.108	0.127	-0.054	5967.000
-7.850	0.317	-29.756	0.107	0.052	-0.010	5967.000
-6.791	-0.754	-28.363	0.105	0.076	-0.048	5967.000
-4.917	-0.767	-28.301	0.117	0.133	-0.034	5967.000
-4.587	-0.437	-27.242	0.118	0.079	-0.031	5967.000
-5.079	-2.004	-28.612	0.090	0.083	0.022	5967.000
-5.555	-0.179	-25.855	0.099	0.026	-0.064	3250.000
-8.055	1.077	-25.154	0.088	-0.012	-0.009	2878.000
-12.228	0.774	-26.547	0.072	-0.019	-0.057	2878.000
-11.233	0.762	-27.571	0.077	-0.183	-0.021	2878.000
-9.559	-0.942	-25.866	0.098	0.002	-0.017	1683.000
-3.161	-0.098	-22.427	0.106	0.011	-0.067	1683.000
-4.763	-1.147	-24.190	0.088	-0.010	0.007	1097.000
-8.081	-0.073	-24.925	0.077	-0.090	-0.036	912.000
-6.469	0.242	-23.962	0.083	-0.093	-0.022	683.000
-7.963	-0.442	-20.286	0.077	-0.082	-0.048	683.000
-5.813	-0.070	-19.271	0.079	-0.099	-0.005	278.000
-5.680	-0.858	-20.758	0.069	-0.087	0.004	175.000
-8.589	-1.163	-18.971	0.054	-0.112	-0.031	175.000
-6.745	0.114	-18.270	0.064	-0.133	-0.016	175.000
-8.377	-0.316	-18.865	0.067	-0.131	-0.034	0.000
-6.792	-0.086	-17.425	0.065	-0.099	-0.023	12.000
-1.445	-0.936	-17.894	0.084	0.003	-0.015	12.000
-0.733	-1.599	-17.822	0.100	0.057	-0.015	12.000
13.971	0.239	-19.503	0.098	0.089	0.024	234.000
9.373	-2.370	-21.211	0.074	0.360	0.029	385.000
12.443	-0.531	-19.725	0.074	0.319	0.040	385.000
11.822	-0.311	-19.527	0.063	0.383	0.034	385.000
15.224	-0.412	-20.760	0.060	0.354	0.068	385.000
13.844	-0.418	-18.437	0.065	0.383	0.010	385.000
14.999	0.020	-19.989	0.066	0.360	0.088	385.000
14.945	-0.137	-17.582	0.063	0.384	0.017	1890.000
17.410	-0.163	-17.707	0.064	0.368	0.051	2057.000
18.179	-0.503	-15.753	0.057	0.380	0.066	2057.000
18.779	-0.443	-15.210	0.049	0.382	0.056	2057.000
17.923	-0.438	-14.436	0.063	0.394	0.035	3479.000
19.682	-0.201	-13.866	0.069	0.388	0.075	3820.000
18.530	-0.437	-13.913	0.071	0.396	0.007	4135.000
18.895	-0.372	-12.044	0.076	0.406	0.100	4135.000
18.611	-1.040	-12.953	0.060	0.404	0.018	5337.000
18.386	0.042	-13.850	0.077	0.395	0.055	5702.000
17.245	-0.802	-12.400	0.097	0.413	0.096	5921.000
16.769	-1.704	-13.489	0.092	0.411	-0.014	5921.000
16.951	-0.916	-11.926	0.098	0.418	0.093	5921.000
18.152	-0.702	-12.163	0.095	0.413	0.019	7036.000
14.740	-0.991	-13.815	0.092	0.415	0.083	7266.000
14.313	-0.790	-14.349	0.084	0.415	0.016	7266.000
17.621	-1.380	-10.337	0.078	0.430	0.049	7266.000
16.936	-0.310	-11.743	0.081	0.422	0.020	7772.000
14.197	-1.052	-12.187	0.091	0.432	0.055	7811.000
16.671	-0.572	-9.637	0.083	0.443	-0.016	7811.000
20.082	-1.564	-10.472	0.075	0.416	0.051	7971.000
18.128	-0.776	-10.161	0.095	0.430	0.025	8000.000
16.597	-1.006	-12.645	0.097	0.416	0.055	8000.000
10.933	-1.068	-15.363	0.102	0.424	0.021	8000.000
7.575	0.200	-24.445	0.101	0.364	0.026	8000.000
-9.462	-1.182	-32.159	0.095	0.393	-0.029	7765.000
-9.768	2.598	-33.330	0.081	0.150	-0.019	7655.000
-14.330	-0.499	-36.468	0.095	0.176	-0.035	7655.000
-8.659	0.062	-30.069	0.110	0.125	-0.031	7655.000
-10.866	-0.040	-33.303	0.113	0.129	-0.044	7068.000
-14.511	-0.537	-34.009	0.113	0.073	-0.032	6768.000
-9.925	-1.092	-29.355	0.111	0.118	-0.045	6516.000
-10.345	-0.470	-29.857	0.118	0.075	-0.032	6516.000
-5.621	0.021	-29.453	0.108	0.113	-0.062	6516.000
-9.642	-0.181	-29.542	0.108	0.068	-0.008	5372.000
-4.237	-1.646	-26.435	0.097	0.118	-0.022	4978.000
-3.320	-0.436	-22.384	0.104	0.035	-0.041	4978.000
-5.954	-0.684	-24.873	0.086	0.082	0.003	4978.000
-7.075	-0.047	-25.376	0.086	0.114	-0.029	3716.000
-7.141	0.162	-27.949	0.096	-0.033	-0.034	3085.000
-7.120	-0.968	-25.006	0.090	-0.003	0.003	3085.000
-4.483	0.104	-21.394	0.083	0.006	-0.047	3085.000
-6.086	-1.066	-25.290	0.065	-0.053	-0.008	3085.000
-7.515	-0.337	-26.676	0.084	-0.064	-0.003	1564.000
-5.138	0.591	-24.706	0.098	0.021	-0.083	1344.000
-7.261	-0.005	-23.053	0.096	-0.028	-0.000	1175.000
-5.539	0.282	-22.131	0.084	-0.112	-0.057	1175.000
-8.389	-0.299	-21.428	0.070	-0.083	-0.022	1175.000
-7.664	0.278	-20.795	0.078	-0.103	-0.049	402.000
-7.852	-0.198	-19.269	0.066	-0.082	-0.048	247.000
-5.906	-0.547	-20.975	0.070	-0.111	-0.017	247.000
-6.594	-0.254	-19.337	0.073	-0.125	-0.029	247.000
-9.399	0.301	-21.321	0.078	-0.117	-0.026	7.000
-9.533	-0.056	-18.697	0.065	-0.134	-0.031	7.000
-8.991	0.183	-18.942	0.064	-0.159	-0.029	0.000
-6.985	0.023	-18.341	0.072	-0.100	-0.026	11.000
-1.477	-0.757	-18.823	0.092	-0.007	-0.009	41.000
-2.736	-1.680	-20.140	0.107	0.050	-0.023	107.000
12.831	-0.805	-22.528	0.094	0.085	0.038	165.000
9.378	-2.381	-21.513	0.074	0.381	0.045	165.000
15.185	-0.460	-21.620	0.083	0.348	0.034	548.000
13.533	-1.114	-19.724	0.073	0.373	0.045	666.000
17.903	-0.221	-19.032	0.065	0.354	0.051	666.000
16.393	-0.446	-17.887	0.074	0.372	0.055	666.000
17.911	-0.243	-19.110	0.072	0.354	0.044	1487.000
15.825	-0.498	-18.489	0.076	0.370	0.052	1743.000
17.876	-0.587	-18.446	0.070	0.360	0.042	1743.000
18.950	-0.389	-15.033	0.066	0.382	0.057	2626.000
19.604	0.050	-14.699	0.057	0.381	0.056	2871.000
18.289	-0.421	-14.876	0.068	0.388	0.050	2871.000
19.581	-0.283	-14.700	0.073	0.382	0.061	2871.000
19.203	-0.438	-13.324	0.062	0.397	0.031	4515.000
20.067	-0.536	-10.642	0.076	0.412	0.095	4515.000
19.866	-0.825	-11.006	0.063	0.413	0.025	5401.000
19.195	-0.469	-13.754	0.076	0.392	0.062	5627.000
19.749	-1.341	-10.831	0.086	0.414	0.067	5627.000
19.775	-0.907	-10.564	0.090	0.418	0.022	5627.000
20.543	-1.480	-8.561	0.081	0.427	0.109	6755.000
20.077	-1.092	-9.555	0.081	0.425	0.014	7042.000
19.528	-0.804	-8.130	0.088	0.438	0.065	7271.000
19.558	-0.683	-12.184	0.096	0.403	0.063	7271.000
18.680	-1.155	-8.821	0.091	0.438	0.040	7271.000
19.729	-0.538	-10.904	0.092	0.414	0.039	7777.000
18.600	-0.586	-11.017	0.094	0.418	0.061	7865.000
18.464	-1.324	-7.743	0.091	0.449	0.008	7935.000
22.723	-1.767	-9.426	0.081	0.411	0.057	7935.000
19.097	-0.986	-9.145	0.094	0.433	0.031	7935.000
18.374	-1.013	-9.802	0.093	0.430	0.065	7935.000
19.250	-1.336	-10.733	0.093	0.419	0.041	7999.000
12.173	-0.682	-14.062	0.107	0.428	0.033	7999.000
8.915	-0.755	-23.671	0.104	0.365	0.012	7999.000
3.549	1.412	-32.845	0.121	0.315	-0.001	7999.000
-10.777	0.556	-38.609	0.094	0.241	-0.029	7624.000
-13.072	-0.399	-35.688	0.095	0.101	-0.053	7457.000
-15.171	0.851	-38.148	0.126	0.115	-0.030	7457.000
-13.069	-0.676	-38.210	0.130	0.165	-0.057	7457.000
-14.861	-0.747	-36.457	0.128	0.093	-0.031	6797.000
-11.645	-0.601	-32.937	0.122	0.088	-0.054	6797.000
-9.887	-0.373	-30.830	0.106	0.038	-0.040	6797.000
-12.636	-1.236	-33.005	0.119	0.070	-0.045	5802.000
-7.728	0.758	-32.882	0.131	0.062	-0.042	5508.000
-13.091	-1.283	-32.957	0.112	0.166	-0.042	5508.000
-9.016	-0.076	-31.859	0.103	-0.030	-0.006	5508.000
-9.140	-0.337	-29.261	0.095	-0.026	-0.042	4094.000
-7.167	0.245	-26.410	0.102	0.065	-0.038	3506.000
-8.753	0.192	-23.690	0.096	-0.010	-0.019	3399.000
-8.974	-0.072	-28.180	0.079	-0.079	-0.010	3399.000
-10.380	-0.413	-30.712	0.098	-0.074	-0.020	3399.000
-7.562	0.857	-29.349	0.116	0.013	-0.092	1897.000
-9.486	-0.009	-27.645	0.102	-0.004	-0.004	1611.000
-4.529	-0.010	-24.920	0.093	-0.068	-0.046	1418.000
-9.257	-0.666	-22.024	0.070	-0.062	-0.003	1418.000
-6.409	0.310	-23.073	0.071	-0.099	-0.044	1418.000
-11.074	-1.050	-25.160	0.077	-0.136	-0.033	1418.000
-9.270	0.348	-22.187	0.090	-0.160	-0.020	430.000
-9.618	0.279	-22.238	0.083	-0.131	-0.042	330.000
-14.433	-0.704	-21.562	0.072	-0.077	-0.044	330.000
-7.698	0.581	-20.898	0.079	-0.138	-0.030	330.000
-9.969	-0.837	-19.242	0.068	-0.111	-0.022	15.000
-7.639	0.129	-19.275	0.070	-0.147	-0.036	0.000
-9.505	-0.054	-19.207	0.073	-0.155	-0.030	0.000
-8.351	-0.226	-17.570	0.071	-0.151	-0.030	0.000
-7.900	-0.246	-18.283	0.078	-0.126	-0.029	1.000
-6.396	-0.870	-18.355	0.077	-0.076	-0.018	1.000
0.887	-1.608	-17.952	0.074	0.139	-0.031	1.000
2.816	-2.845	-16.854	0.110	0.118	0.015	167.000
13.234	-1.066	-17.435	0.105	0.297	0.033	344.000
11.001	-0.592	-18.343	0.049	0.374	0.006	481.000
16.125	1.294	-18.505	0.050	0.367	0.056	481.000
13.960	-0.600	-15.980	0.046	0.402	0.025	481.000
16.136	-0.272	-17.349	0.037	0.378	0.058	1099.000
16.254	0.024	-16.280	0.047	0.387	0.027	1394.000
17.924	0.262	-17.254	0.057	0.368	0.070	1394.000
17.617	-0.304	-15.793	0.065	0.384	0.039	2124.000
19.286	-0.174	-16.262	0.058	0.370	0.058	2124.000
17.844	-0.550	-15.458	0.072	0.386	0.036	2124.000
18.911	-0.512	-15.415	0.076	0.378	0.091	2124.000
18.448	-0.406	-15.019	0.068	0.387	0.014	2124.000
18.768	0.065	-13.094	0.072	0.399	0.078	2124.000
18.876	-0.759	-13.383	0.062	0.397	0.048	4769.000
19.681	-0.796	-11.919	0.075	0.406	0.032	5187.000
18.268	-0.601	-11.903	0.089	0.412	0.068	5187.000
21.334	-0.972	-9.928	0.069	0.413	0.067	5187.000
20.794	-0.404	-9.368	0.055	0.422	0.028	5187.000
20.288	-0.710	-9.663	0.064	0.421	0.062	6482.000
19.850	-1.200	-9.896	0.068	0.422	0.044	6482.000
18.942	-0.652	-9.766	0.074	0.428	0.041	6482.000
18.213	-0.907	-9.789	0.071	0.432	0.042	6482.000
19.907	-1.007	-9.291	0.071	0.427	0.043	7588.000
18.535	-0.709	-10.243	0.085	0.426	0.039	7684.000
16.839	-1.265	-11.903	0.090	0.422	0.031	7684.000
17.170	-0.433	-12.687	0.092	0.412	0.047	7684.000
13.572	-0.427	-10.852	0.093	0.447	0.029	7980.000
20.663	-1.678	-10.285	0.083	0.415	0.049	7980.000
17.873	-0.991	-9.297	0.088	0.438	0.044	8000.000
16.392	-0.375	-13.609	0.094	0.409	0.031	7961.000
6.829	-0.326	-25.891	0.100	0.357	0.021	7935.000
-0.734	0.122	-32.445	0.110	0.342	-0.002	7935.000
-8.526	-0.563	-36.062	0.096	0.270	-0.012	7935.000
-12.372	1.165	-35.260	0.075	0.106	-0.004	7935.000
-14.201	0.756	-34.837	0.091	0.152	-0.072	7935.000
-12.007	0.042	-33.427	0.107	0.116	-0.029	7137.000
-14.050	-0.627	-36.134	0.116	0.109	-0.061	6937.000
-11.691	-0.498	-35.696	0.125	0.071	-0.029	6937.000
-10.563	-0.299	-32.651	0.125	0.123	-0.069	6937.000
-11.513	-0.427	-32.911	0.119	0.022	-0.020	5985.000
-8.823	-1.222	-29.431	0.110	0.082	-0.041	5985.000
-5.976	-0.144	-24.637	0.096	0.039	-0.045	5094.000
-7.216	-1.874	-30.271	0.112	0.126	-0.022	5094.000
-0.931	-0.389	-27.594	0.120	0.093	-0.021	5094.000
-3.854	-1.671	-28.484	0.089	0.196	-0.035	5094.000
-4.799	0.394	-28.021	0.110	0.158	-0.051	3213.000
-7.068	-0.790	-28.892	0.121	0.014	0.010	2825.000
-8.243	-0.662	-26.623	0.094	0.014	-0.040	2525.000
-6.040	1.040	-19.959	0.059	-0.069	-0.032	2275.000
-8.623	-0.526	-21.782	0.051	-0.078	-0.025	2275.000
-8.640	0.031	-26.158	0.082	-0.103	-0.008	2275.000
-7.479	0.419	-25.143	0.107	-0.035	-0.070	1107.000
-9.077	-0.070	-22.741	0.089	-0.073	-0.033	895.000
-5.430	0.731	-21.093	0.080	-0.100	-0.023	895.000
-8.317	0.050	-21.179	0.078	-0.068	-0.036	895.000
-7.686	-0.155	-21.735	0.079	-0.076	-0.042	304.000
-5.629	0.748	-21.277	0.090	-0.131	-0.030	213.000
-10.135	0.002	-20.819	0.076	-0.141	-0.043	153.000
-6.257	0.322	-18.150	0.066	-0.176	-0.023	26.000
-8.555	0.163	-20.612	0.061	-0.147	-0.018	3.000
-8.187	-0.301	-17.882	0.061	-0.112	-0.029	0.000
-7.246	-0.341	-18.472	0.072	-0.112	-0.027	0.000
-6.904	-0.335	-19.155	0.078	-0.096	-0.027	0.000
-4.211	-0.655	-18.583	0.081	-0.066	-0.021	25.000
-3.384	-0.954	-17.756	0.093	0.001	0.001	25.000
4.484	-0.849	-17.793	0.076	-0.025	0.004	25.000
6.378	-2.573	-21.213	0.078	0.339	0.010	270.000
12.645	-1.345	-20.839	0.075	0.325	0.055	270.000
14.614	-0.247	-20.138	0.069	0.363	0.031	633.000
13.663	-0.115	-21.896	0.075	0.352	0.066	763.000
16.332	-0.063	-17.921	0.072	0.373	0.028	763.000
15.330	-0.050	-20.390	0.064	0.356	0.062	763.000
16.087	-0.350	-18.478	0.070	0.370	0.035	1544.000
16.067	-0.408	-18.233	0.074	0.371	0.050	1857.000
16.557	-0.147	-16.307	0.072	0.384	0.058	1857.000
16.982	-0.036	-16.551	0.069	0.380	0.055	1857.000
18.284	-0.282	-15.762	0.066	0.381	0.023	1857.000
18.094	-0.780	-16.200	0.074	0.376	0.096	1857.000
14.955	-0.457	-17.303	0.078	0.386	0.015	1857.000
18.328	-0.616	-13.444	0.081	0.399	0.072	1857.000
18.704	-0.274	-12.201	0.064	0.408	0.048	5121.000
18.366	-0.516	-13.275	0.072	0.401	0.047	5533.000
18.887	-1.602	-11.001	0.092	0.417	0.073	5642.000
19.759	-1.263	-11.616	0.094	0.409	0.036	5642.000
20.701	-1.359	-9.451	0.078	0.421	0.062	6598.000
20.253	-0.141	-8.959	0.075	0.427	0.053	6906.000
20.631	-0.963	-8.084	0.067	0.433	0.047	6970.000
19.119	-1.078	-9.996	0.086	0.425	0.043	7362.000
18.813	-0.992	-9.109	0.087	0.434	0.059	7362.000
19.061	-1.288	-9.151	0.086	0.433	0.044	7675.000
18.393	0.133	-11.873	0.092	0.411	0.062	7793.000
20.814	0.248	-11.854	0.104	0.399	0.044	7793.000
17.827	-1.648	-7.961	0.080	0.449	0.057	7793.000
19.452	-0.524	-6.861	0.093	0.449	0.042	7998.000
19.627	-1.206	-8.123	0.098	0.439	0.038	8000.000
20.313	-0.962	-9.401	0.104	0.423	0.071	8000.000
19.975	-1.324	-8.997	0.094	0.429	0.044	7999.000
16.015	-0.817	-13.749	0.099	0.409	0.052	7989.000
11.152	-0.397	-17.984	0.101	0.401	0.004	7989.000
3.265	-0.955	-29.019	0.113	0.350	0.013	7989.000
-6.880	-1.003	-37.421	0.103	0.335	-0.020	7989.000
-16.117	0.575	-35.891	0.073	0.128	-0.034	7989.000
-16.728	0.261	-36.671	0.109	0.135	-0.031	7989.000
-9.459	0.022	-35.140	0.128	0.125	-0.060	7129.000
-10.701	-0.608	-40.012	0.151	0.224	-0.029	6919.000
-12.438	-0.374	-38.221	0.142	0.140	-0.046	6919.000
-12.128	-0.689	-38.665	0.140	0.147	-0.068	6919.000
-11.006	-0.234	-36.206	0.132	0.092	-0.018	5944.000
-12.991	-0.185	-35.487	0.121	0.090	-0.067	5820.000
-10.136	-0.832	-33.633	0.122	0.027	-0.025	5820.000
-15.677	-0.773	-33.394	0.124	0.079	-0.045	5820.000
-9.718	0.814	-36.008	0.109	-0.059	-0.034	5820.000
-11.450	-1.379	-33.754	0.096	0.008	-0.016	5820.000
-7.927	-1.113	-32.662	0.120	0.013	-0.008	3249.000
-10.401	-0.168	-30.259	0.108	-0.074	-0.102	3249.000
-10.394	0.187	-29.717	0.102	-0.021	-0.016	2521.000
-11.942	0.355	-30.690	0.103	-0.086	-0.058	2168.000
-8.081	0.312	-27.394	0.097	-0.074	-0.093	1793.000
-3.311	-0.067	-25.017	0.102	0.055	-0.042	1793.000
-9.442	-0.613	-27.594	0.115	-0.067	-0.016	1793.000
-7.476	0.120	-24.997	0.097	-0.091	-0.031	1793.000
-10.749	-0.047	-27.105	0.083	-0.173	-0.011	717.000
-10.905	-0.425	-24.803	0.074	-0.171	-0.026	717.000
-11.043	0.186	-25.793	0.084	-0.211	-0.018	717.000
-9.105	0.424	-24.508	0.087	-0.203	-0.051	210.000
-12.857	-0.906	-24.864	0.083	-0.065	-0.042	160.000
-8.479	0.776	-22.876	0.086	-0.230	-0.034	160.000
-10.894	0.121	-24.762	0.075	-0.136	-0.040	160.000
-11.705	-0.057	-22.699	0.076	-0.175	-0.039	160.000
-11.281	-0.013	-23.225	0.076	-0.191	-0.036	160.000
-10.633	-0.074	-22.023	0.079	-0.171	-0.039	0.000
-6.253	-0.481	-21.452	0.086	-0.083	-0.028	3.000
-3.434	-1.617	-23.179	0.124	-0.035	-0.017	3.000
-1.819	-2.481	-23.689	0.122	0.140	-0.010	3.000
8.712	-0.953	-22.701	0.108	0.233	0.014	251.000
12.807	-0.449	-20.585	0.114	0.370	0.008	456.000
12.326	-1.279	-22.604	0.080	0.355	0.054	456.000
13.402	1.077	-20.419	0.074	0.360	0.030	456.000
13.216	-0.409	-21.297	0.067	0.360	0.064	1131.000
14.342	0.011	-20.574	0.065	0.361	0.027	1399.000
14.582	-0.221	-19.748	0.055	0.366	0.057	1399.000
14.566	0.052	-18.564	0.053	0.377	0.030	1399.000
15.322	-0.131	-17.255	0.061	0.383	0.048	1399.000
16.692	-0.180	-16.588	0.055	0.381	0.048	2700.000
16.746	-0.490	-15.529	0.055	0.390	0.048	3146.000
15.803	-0.445	-15.953	0.061	0.393	0.023	3647.000
16.821	-0.040	-15.246	0.072	0.390	0.090	4159.000
18.867	-0.364	-14.555	0.072	0.388	0.024	4286.000
21.610	-0.357	-10.762	0.063	0.404	0.059	5094.000
20.853	-0.291	-11.679	0.073	0.400	0.076	5094.000
19.779	-0.764	-12.183	0.086	0.403	0.034	5094.000
18.137	-1.075	-11.588	0.113	0.415	0.094	6247.000
19.411	-0.923	-11.169	0.112	0.414	0.027	6514.000
19.269	-1.286	-10.660	0.099	0.418	0.075	6775.000
19.040	-0.642	-11.551	0.095	0.412	0.046	6775.000
18.985	-0.565	-12.598	0.089	0.403	0.053	6775.000
19.589	-1.430	-9.747	0.088	0.425	0.052	7498.000
21.252	-0.573	-8.657	0.096	0.424	0.073	7498.000
22.843	-0.586	-12.029	0.098	0.388	0.044	7840.000
16.062	-2.683	-8.798	0.086	0.452	0.060	7840.000
24.079	-0.803	-9.791	0.090	0.401	0.038	7840.000
16.626	-1.352	-12.561	0.091	0.416	0.058	7840.000
17.882	-0.929	-11.807	0.092	0.417	0.030	8000.000
16.031	-0.921	-13.196	0.095	0.414	0.049	7993.000
11.087	-0.734	-19.360	0.107	0.390	0.011	7973.000
-1.467	-0.865	-28.086	0.108	0.383	0.002	7858.000
1.499	1.673	-37.791	0.120	0.263	-0.009	7829.000
-13.117	1.287	-39.254	0.081	0.225	-0.022	7613.000
-12.924	1.591	-39.633	0.103	0.172	-0.035	7407.000
-11.732	-0.575	-39.397	0.124	0.230	-0.052	7313.000
-10.986	-0.737	-35.106	0.132	0.191	-0.048	7124.000
-11.211	-0.781	-35.315	0.124	0.136	-0.044	7124.000
-10.164	-0.906	-31.208	0.118	0.069	-0.040	6425.000
-11.434	-0.007	-32.872	0.117	0.068	-0.049	6355.000
-9.815	-1.041	-29.832	0.110	0.108	-0.048	6355.000
-10.227	-1.165	-30.226	0.114	0.062	-0.026	6355.000
-4.252	0.216	-29.480	0.122	0.071	-0.047	4837.000
-8.487	-1.719	-28.926	0.119	0.157	-0.031	4724.000
-1.667	-0.215	-23.617	0.107	0.027	-0.019	4724.000
-6.030	-0.665	-23.601	0.088	0.114	-0.028	4724.000
-5.164	-0.125	-23.318	0.077	0.082	-0.031	3067.000
-7.718	0.287	-27.921	0.092	-0.044	-0.030	3067.000
-9.467	-0.555	-26.736	0.097	-0.002	-0.036	3067.000
-4.205	0.324	-22.888	0.095	0.000	-0.026	3067.000
-8.583	-0.897	-24.338	0.082	-0.081	-0.032	1574.000
-6.618	0.375	-25.606	0.072	-0.060	0.007	1243.000
-8.232	0.282	-25.070	0.090	-0.083	-0.053	1112.000
-10.207	-0.316	-24.745	0.094	-0.071	-0.028	1112.000
-8.071	0.315	-22.829	0.083	-0.148	-0.013	1112.000
-7.802	-0.767	-21.721	0.080	-0.129	-0.030	379.000
-8.317	0.310	-18.989	0.071	-0.106	-0.022	379.000
-10.518	0.226	-17.869	0.064	-0.090	-0.047	379.000
-9.657	0.585	-20.946	0.071	-0.141	-0.041	74.000
-10.233	-0.291	-19.055	0.062	-0.173	-0.033	74.000
-8.020	0.163	-19.319	0.068	-0.147	-0.024	74.000
-8.902	-0.297	-20.288	0.076	-0.132	-0.032	74.000
-7.267	-0.056	-19.906	0.076	-0.119	-0.024	74.000
-6.523	-0.410	-19.563	0.075	-0.080	-0.034	10.000
-1.553	-0.851	-18.014	0.092	-0.034	-0.010	50.000
-4.096	-1.564	-18.804	0.103	0.029	-0.026	50.000
6.900	-2.027	-21.161	0.083	0.110	0.023	238.000
9.470	-2.779	-21.903	0.059	0.301	0.056	300.000
12.375	0.019	-20.479	0.081	0.309	0.026	413.000
11.056	-0.855	-21.275	0.065	0.371	0.048	742.000
16.644	0.127	-21.234	0.067	0.342	0.058	921.000
13.895	-0.145	-19.571	0.066	0.372	0.026	1230.000
16.967	0.194	-19.578	0.067	0.354	0.062	1230.000
15.861	-0.250	-18.098	0.067	0.373	0.043	1230.000
17.674	-0.020	-17.109	0.065	0.372	0.039	1230.000
17.980	-0.292	-16.612	0.060	0.375	0.049	2454.000
18.383	0.054	-15.610	0.056	0.380	0.061	2454.000
17.194	-0.070	-14.793	0.069	0.394	0.047	3399.000
17.066	-0.433	-17.365	0.067	0.373	0.055	3917.000
16.376	-0.276	-16.400	0.071	0.385	0.042	3917.000
19.261	-0.514	-12.000	0.075	0.407	0.045	3917.000
17.769	-0.527	-13.308	0.059	0.404	0.045	5355.000
18.021	-0.646	-14.077	0.075	0.396	0.054	5748.000
17.117	-0.720	-13.712	0.090	0.404	0.051	5834.000
16.699	-1.184	-12.822	0.104	0.414	0.053	5834.000
17.185	-0.893	-13.009	0.107	0.409	0.070	5834.000
16.535	-1.039	-12.174	0.101	0.421	0.034	6986.000
15.013	-0.953	-13.491	0.096	0.417	0.053	7157.000
18.528	-1.031	-14.704	0.088	0.389	0.026	7401.000
15.351	-0.867	-12.315	0.081	0.425	0.054	7401.000
18.418	-0.633	-12.312	0.086	0.410	0.027	7401.000
18.822	-0.328	-15.138	0.086	0.382	0.059	7879.000
13.582	-1.174	-12.017	0.088	0.438	0.023	7879.000
19.383	-1.383	-11.419	0.086	0.413	0.034	7879.000
14.480	-0.892	-12.876	0.089	0.426	0.031	7879.000
15.613	-1.088	-12.241	0.082	0.425	0.041	7879.000
16.126	-1.006	-12.445	0.088	0.420	0.043	7879.000
16.336	-0.902	-12.483	0.095	0.419	0.037	8000.000
11.280	-0.674	-17.162	0.099	0.406	0.038	7979.000
10.048	-0.755	-23.526	0.098	0.361	0.007	7934.000
-1.685	-0.053	-26.132	0.110	0.401	-0.022	7934.000
-3.013	1.645	-32.289	0.103	0.248	-0.020	7934.000
-14.251	0.696	-34.184	0.096	0.117	-0.036	7560.000
-11.194	-0.045	-31.344	0.102	0.086	-0.029	7560.000
-12.386	-0.046	-33.961	0.109	0.130	-0.050	7560.000
-9.312	-0.406	-31.162	0.111	0.122	-0.028	7560.000
-12.279	0.250	-33.034	0.115	0.118	-0.083	7560.000
-7.053	-0.039	-29.974	0.115	0.130	0.004	7560.000
-10.968	-1.837	-31.071	0.108	0.129	-0.069	6007.000
-9.146	0.831	-32.996	0.121	0.052	-0.013	5827.000
-10.793	-1.378	-31.741	0.105	0.183	-0.051	5827.000
-7.119	0.632	-24.213	0.092	0.046	-0.046	5827.000
-12.413	-0.112	-26.643	0.070	0.051	-0.026	4416.000
-3.950	0.669	-24.632	0.090	-0.003	-0.052	4004.000
-7.090	-1.191	-20.748	0.087	0.003	-0.043	4004.000
-7.373	0.661	-20.458	0.060	-0.038	0.001	4004.000
-9.939	0.148	-28.222	0.042	-0.113	-0.016	2551.000
-7.045	-0.966	-27.511	0.098	0.031	-0.030	2155.000
-3.333	-0.053	-22.702	0.115	0.022	-0.057	1829.000
-4.541	-1.393	-25.150	0.083	-0.029	0.021	1461.000
-8.487	0.158	-23.644	0.080	-0.028	-0.018	1461.000
-6.844	0.625	-19.989	0.066	-0.091	-0.057	1461.000
-8.605	-0.281	-21.057	0.060	-0.107	-0.014	724.000
-7.582	-0.270	-21.424	0.077	-0.093	0.003	646.000
-7.468	0.220	-21.311	0.076	-0.099	-0.048	342.000
-8.076	-0.578	-18.884	0.073	-0.080	-0.049	239.000
-4.508	-0.631	-16.443	0.070	-0.110	-0.013	239.000
-9.732	0.077	-21.203	0.067	-0.121	-0.043	239.000
-5.262	-0.117	-18.638	0.060	-0.109	-0.015	3.000
-6.338	-0.419	-17.395	0.062	-0.092	-0.030	0.000
-4.189	-0.343	-17.443	0.071	-0.036	-0.018	11.000
4.549	-1.162	-17.106	0.079	0.118	0.002	11.000
9.440	-1.463	-20.586	0.120	0.093	0.006	203.000
10.575	-2.027	-22.120	0.070	0.362	0.035	269.000
14.256	0.162	-18.785	0.065	0.301	0.018	269.000
13.599	-0.523	-19.812	0.062	0.371	0.049	269.000
16.139	-0.721	-19.489	0.051	0.361	0.044	843.000
16.128	-0.212	-17.259	0.054	0.380	0.028	843.000
17.759	-0.426	-17.292	0.048	0.370	0.055	1486.000
16.444	-0.215	-16.335	0.048	0.385	0.042	1738.000
18.425	-0.213	-17.222	0.051	0.367	0.050	1863.000
18.131	-0.194	-15.417	0.063	0.383	0.055	1863.000
19.053	-0.484	-15.447	0.065	0.380	0.034	1863.000
17.927	-0.321	-14.537	0.069	0.392	0.065	3209.000
19.286	-0.495	-15.563	0.073	0.377	0.040	3209.000
18.773	-0.713	-13.663	0.073	0.395	0.054	3209.000
18.336	-0.616	-13.849	0.063	0.396	0.053	4785.000
19.770	-0.733	-11.219	0.075	0.410	0.061	4785.000
19.692	-0.729	-11.597	0.074	0.409	0.040	4785.000
20.594	-0.637	-9.532	0.056	0.420	0.075	4785.000
19.394	-0.566	-10.443	0.052	0.420	0.020	4785.000
19.932	-0.927	-10.109	0.065	0.418	0.077	6576.000
19.273	-1.142	-10.044	0.070	0.425	0.019	6823.000
16.434	-0.567	-11.520	0.075	0.425	0.061	6986.000
17.647	-0.685	-11.687	0.071	0.419	0.037	6986.000
17.621	-0.763	-10.128	0.076	0.432	0.040	7579.000
20.704	-0.987	-9.267	0.071	0.422	0.060	7731.000
16.850	-0.838	-11.402	0.075	0.425	0.048	7802.000
20.439	-0.628	-8.493	0.085	0.430	0.050	7802.000
18.565	-0.420	-13.019	0.094	0.402	0.058	7802.000
18.109	-0.765	-8.739	0.090	0.441	0.049	8000.000
17.001	-0.947	-10.312	0.085	0.434	0.035	7990.000
12.808	-0.752	-17.138	0.091	0.398	0.039	7990.000
-0.787	-0.598	-26.135	0.102	0.397	-0.016	7990.000
-1.257	0.144	-33.205	0.106	0.249	0.004	7750.000
-11.896	1.774	-33.483	0.063	0.180	-0.024	7692.000
-8.498	2.089	-32.671	0.104	0.125	-0.026	7692.000
-10.527	-0.782	-31.954	0.118	0.176	-0.053	7692.000
-10.384	-0.426	-32.677	0.123	0.137	-0.035	7058.000
-12.677	-1.079	-34.755	0.125	0.115	-0.042	7058.000
-10.847	0.232	-33.096	0.122	0.076	-0.050	6582.000
-13.870	-1.408	-33.558	0.106	0.114	-0.040	6582.000
-11.280	0.080	-31.389	0.118	0.107	-0.060	5776.000
-8.211	-1.395	-29.259	0.108	0.067	-0.022	5417.000
-4.903	-0.069	-30.008	0.113	0.030	-0.032	5050.000
-10.839	-1.323	-32.164	0.115	0.093	-0.025	5050.000
-2.396	0.016	-27.235	0.120	0.076	-0.063	5050.000
-6.028	-1.799	-26.402	0.101	0.121	-0.006	3405.000
-3.767	-0.105	-22.513	0.095	-0.044	-0.026	2985.000
-7.969	-0.807	-21.716	0.072	-0.043	-0.033	2648.000
-9.917	1.096	-21.003	0.056	-0.078	-0.027	2648.000
-8.384	0.339	-26.142	0.069	-0.105	-0.039	2648.000
-10.383	-0.664	-28.336	0.098	-0.061	-0.019	1504.000
-2.926	-0.235	-22.357	0.107	-0.023	-0.074	1252.000
-6.091	-0.829	-22.431	0.088	-0.054	0.019	1050.000
-6.927	-0.308	-21.512	0.073	-0.080	-0.028	1050.000
-5.493	0.024	-18.922	0.064	-0.080	-0.038	1050.000
-8.713	0.283	-18.690	0.050	-0.132	-0.030	430.000
-6.729	0.338	-16.849	0.054	-0.120	-0.022	322.000
-4.869	0.776	-17.780	0.073	-0.131	-0.034	116.000
-11.337	-0.042	-22.392	0.079	-0.111	-0.044	57.000
-7.981	-0.098	-18.447	0.070	-0.163	-0.031	57.000
-7.827	0.118	-18.412	0.066	-0.141	-0.022	0.000
-7.580	-0.318	-17.619	0.067	-0.111	-0.020	21.000
-3.417	-1.036	-17.877	0.069	0.015	-0.014	21.000
-2.009	-1.206	-19.684	0.075	0.123	0.003	149.000
10.718	0.748	-17.510	0.102	0.215	0.018	296.000
13.945	-0.703	-19.209	0.079	0.376	0.018	333.000
17.483	-0.346	-18.521	0.061	0.361	0.047	333.000
19.207	-0.168	-15.280	0.066	0.379	0.044	333.000
20.867	-0.521	-17.504	0.057	0.352	0.041	946.000
19.761	0.027	-15.750	0.061	0.371	0.064	946.000
20.120	-0.582	-16.845	0.062	0.361	0.059	1660.000
18.730	-0.588	-16.201	0.066	0.375	0.039	1660.000
19.091	-0.291	-16.345	0.068	0.370	0.064	1660.000
20.343	-0.049	-15.127	0.075	0.375	0.038	1660.000
20.652	0.009	-14.101	0.072	0.380	0.070	1660.000
18.998	-0.713	-13.592	0.064	0.396	0.030	1660.000
17.529	-0.972	-15.377	0.075	0.388	0.040	4173.000
20.187	-0.255	-11.585	0.079	0.404	0.089	4485.000
18.817	0.035	-13.837	0.082	0.393	0.054	4949.000
20.615	-0.976	-12.209	0.088	0.398	0.055	4949.000
20.976	-1.064	-11.840	0.094	0.399	0.072	4949.000
22.181	-1.242	-6.970	0.086	0.434	0.061	6239.000
23.625	-0.653	-6.386	0.069	0.431	0.039	6239.000
22.861	-1.006	-6.481	0.066	0.434	0.074	6687.000
23.948	-1.189	-5.057	0.063	0.442	0.036	6687.000
22.943	-0.792	-5.619	0.076	0.441	0.062	7336.000
21.780	-0.926	-8.636	0.078	0.421	0.066	7336.000
23.384	-1.026	-5.508	0.083	0.440	0.042	7336.000
20.881	-2.542	-4.136	0.076	0.465	0.081	7806.000
18.342	-1.884	-8.690	0.073	0.441	0.042	7902.000
22.285	0.183	-4.047	0.097	0.456	0.072	7902.000
21.316	-1.282	-8.166	0.093	0.428	0.067	7997.000
24.107	-1.027	-5.998	0.091	0.431	0.071	7997.000
21.450	-1.304	-6.797	0.083	0.440	0.034	7997.000
21.218	-0.997	-7.869	0.088	0.431	0.075	7999.000
16.334	-0.824	-15.611	0.101	0.393	0.025	7999.000
8.988	-1.268	-20.479	0.098	0.393	0.002	7897.000
-4.733	-1.903	-29.858	0.109	0.387	-0.016	7800.000
-5.646	0.229	-36.962	0.102	0.242	-0.004	7800.000
-17.037	0.974	-36.356	0.105	0.077	-0.062	7800.000
-18.258	0.054	-35.699	0.111	0.089	-0.039	7300.000
-13.550	0.102	-38.363	0.128	0.110	-0.044	7137.000
-14.832	-0.459	-36.828	0.129	0.102	-0.048	7137.000
-9.487	-0.643	-34.657	0.128	0.128	-0.062	6548.000
-11.302	-0.214	-33.279	0.136	0.065	-0.016	6318.000
-11.919	0.286	-35.475	0.130	0.090	-0.072	6318.000
-10.603	-0.539	-33.926	0.124	0.104	-0.020	6318.000
-6.321	-0.276	-30.049	0.120	0.034	-0.047	5067.000
-15.265	-1.272	-30.255	0.091	0.029	-0.039	4590.000
-6.595	1.215	-29.866	0.116	-0.023	-0.049	4086.000
-9.737	-1.619	-29.346	0.112	0.084	-0.007	4086.000
-7.961	0.092	-29.726	0.104	-0.071	-0.072	3129.000
-8.540	-1.316	-29.253	0.089	0.001	0.022	3129.000
-6.729	0.190	-25.294	0.094	-0.024	-0.083	2414.000
-6.183	-1.280	-23.521	0.094	0.007	-0.015	2414.000
-5.761	0.572	-22.846	0.092	-0.020	-0.035	2414.000
-3.737	-0.417	-28.520	0.095	-0.041	-0.021	1293.000
-9.491	-0.253	-26.830	0.093	-0.077	-0.023	1293.000
-5.058	0.131	-22.489	0.085	-0.060	-0.064	1293.000
-9.112	-0.291	-21.597	0.073	-0.117	-0.036	575.000
-8.814	-0.379	-21.548	0.070	-0.118	-0.004	471.000
-9.441	0.033	-22.330	0.070	-0.167	-0.032	471.000
-3.876	0.278	-21.673	0.079	-0.241	0.007	471.000
-11.528	-0.484	-23.144	0.080	-0.118	-0.034	57.000
-5.956	-0.043	-20.134	0.081	-0.131	-0.047	19.000
-8.863	-0.532	-20.763	0.075	-0.112	-0.024	2.000
-9.160	-0.233	-19.980	0.075	-0.141	-0.042	2.000
-9.591	-0.180	-19.850	0.067	-0.149	-0.023	2.000
-8.665	-0.080	-19.406	0.070	-0.161	-0.036	2.000
-3.947	-0.643	-19.259	0.079	-0.041	-0.022	2.000
-1.231	-1.364	-19.946	0.115	0.024	-0.019	2.000
7.115	-2.083	-19.788	0.129	0.099	0.030	2.000
9.129	-1.307	-23.065	0.077	0.303	0.021	326.000
17.318	-0.226	-22.949	0.095	0.325	0.033	460.000
16.745	-0.316	-18.905	0.106	0.361	0.062	460.000
19.097	-0.480	-19.586	0.074	0.343	0.063	912.000
19.915	-0.207	-16.288	0.064	0.368	0.027	1118.000
19.262	-0.227	-17.505	0.066	0.359	0.079	1341.000
18.540	-0.778	-16.403	0.082	0.375	0.026	1341.000
19.941	-0.299	-16.382	0.070	0.365	0.070	1341.000
20.690	-0.119	-14.865	0.060	0.375	0.054	2492.000
21.177	-0.358	-14.445	0.060	0.376	0.041	2787.000
20.564	-0.310	-13.834	0.077	0.383	0.073	3217.000
22.904	-0.713	-10.799	0.068	0.398	0.036	3217.000
20.653	-0.299	-12.324	0.061	0.395	0.092	3217.000
21.551	-0.915	-11.320	0.070	0.404	-0.022	4666.000
24.196	-0.944	-7.172	0.075	0.419	0.128	4821.000
23.758	-0.616	-8.577	0.058	0.413	0.019	4821.000
22.580	-0.798	-8.120	0.064	0.421	0.071	5933.000
20.858	-0.501	-10.715	0.091	0.408	0.075	6290.000
19.443	-1.372	-10.945	0.109	0.416	0.038	6290.000
19.388	-0.876	-11.009	0.111	0.414	0.078	6290.000
19.480	-1.207	-10.504	0.100	0.419	0.048	6290.000
21.076	-1.225	-7.823	0.090	0.432	0.064	6290.000
21.877	-1.025	-6.931	0.085	0.436	0.056	6290.000
21.150	-1.572	-6.920	0.079	0.441	0.049	6290.000
18.796	0.084	-9.421	0.091	0.430	0.052	7822.000
22.644	0.421	-7.963	0.106	0.422	0.047	7909.000
21.540	-1.495	-6.698	0.073	0.439	0.071	7909.000
21.311	-0.824	-6.953	0.086	0.439	0.044	7999.000
20.477	-1.563	-8.784	0.096	0.428	0.060	7999.000
21.322	-1.740	-8.902	0.093	0.423	0.041	7994.000
13.254	-0.704	-13.298	0.108	0.428	0.045	7974.000
10.737	-0.954	-22.236	0.101	0.368	0.010	7974.000
3.229	1.175	-32.241	0.115	0.322	-0.000	7974.000
-9.777	0.442	-39.335	0.088	0.276	-0.032	7695.000
-15.673	1.099	-39.123	0.086	0.063	-0.032	7484.000
-15.162	0.824	-39.911	0.121	0.091	-0.050	7288.000
-15.576	-0.274	-39.589	0.137	0.136	-0.050	7288.000
-13.971	-0.467	-38.336	0.147	0.090	-0.054	7288.000
-11.750	-1.335	-37.383	0.133	0.150	-0.061	6469.000
-13.491	0.062	-37.864	0.142	0.077	-0.037	6244.000
-10.645	-0.752	-35.191	0.124	0.085	-0.064	5832.000
-11.386	-0.516	-31.076	0.126	0.020	-0.046	5832.000
-8.628	-0.620	-33.584	0.110	0.051	-0.036	5832.000
-14.666	-0.856	-32.848	0.108	0.041	-0.055	4556.000
-6.445	0.300	-32.642	0.125	0.079	-0.011	4556.000
-4.835	0.070	-28.519	0.132	0.143	-0.073	3623.000
-2.888	-1.882	-27.932	0.112	0.044	0.006	3623.000
-7.548	-0.081	-28.897	0.104	-0.004	-0.034	3623.000
-8.694	0.201	-28.422	0.092	-0.016	-0.059	3623.000
-8.862	0.144	-28.200	0.103	0.053	-0.027	3623.000
-6.865	-0.141	-30.829	0.102	-0.056	-0.014	1613.000
-7.778	-0.614	-27.007	0.080	-0.003	-0.017	1319.000
-7.939	0.794	-24.795	0.068	-0.107	-0.049	1319.000
-5.744	-0.910	-24.851	0.092	-0.051	-0.033	864.000
-8.682	-0.646	-23.239	0.090	-0.062	-0.017	571.000
-8.165	-0.163	-24.177	0.092	-0.138	-0.039	398.000
-8.674	0.024	-24.127	0.090	-0.115	-0.004	398.000
-14.212	-0.681	-21.811	0.071	-0.073	-0.039	398.000
-7.909	0.413	-20.919	0.071	-0.156	-0.035	398.000
-11.268	-0.561	-21.128	0.070	-0.130	-0.022	13.000
-7.666	0.290	-19.379	0.072	-0.144	-0.041	0.000
-9.671	-0.182	-19.758	0.075	-0.162	-0.030	0.000
-7.303	-0.341	-17.932	0.076	-0.116	-0.024	25.000
-1.430	-0.992	-19.144	0.084	-0.019	-0.017	62.000
5.226	-1.287	-19.076	0.108	0.122	-0.005	62.000
4.086	-4.311	-21.196	0.092	0.209	0.030	62.000
14.993	1.600	-21.736	0.035	0.324	0.086	416.000
15.001	-0.113	-19.319	0.060	0.369	0.021	416.000
18.059	-0.922	-18.997	0.072	0.355	0.051	416.000
16.292	-0.052	-16.903	0.065	0.381	0.056	416.000
16.341	0.101	-18.409	0.044	0.368	0.040	1369.000
16.317	-0.269	-17.500	0.060	0.376	0.043	1543.000
17.431	-0.216	-17.318	0.066	0.371	0.063	1543.000
18.350	-0.164	-16.506	0.071	0.374	0.038	1543.000
18.343	-0.071	-16.203	0.069	0.375	0.065	2690.000
18.109	-0.525	-15.524	0.072	0.383	0.046	3065.000
17.420	-0.324	-16.711	0.069	0.376	0.075	3565.000
18.352	-0.595	-14.963	0.080	0.388	0.024	3565.000
19.032	-0.286	-12.571	0.078	0.401	0.091	3565.000
18.113	-0.588	-14.955	0.082	0.389	0.028	3565.000
19.222	-0.668	-12.343	0.094	0.403	0.073	5519.000
19.306	-1.208	-11.368	0.083	0.413	0.044	5615.000
21.669	-0.716	-8.933	0.064	0.420	0.051	5615.000
21.306	-0.178	-8.046	0.053	0.428	0.063	5615.000
21.631	-0.761	-7.943	0.057	0.429	0.039	6761.000
21.457	-0.684	-7.421	0.066	0.433	0.062	7050.000
20.610	-0.998	-8.848	0.061	0.427	0.036	7207.000
20.349	-0.899	-6.941	0.067	0.444	0.048	7503.000
20.808	-1.035	-8.752	0.072	0.426	0.060	7604.000
23.509	0.201	-8.550	0.086	0.413	0.037	7604.000
20.127	-0.420	-6.679	0.081	0.447	0.044	7604.000
18.175	-1.508	-12.733	0.078	0.408	0.030	7966.000
18.584	-0.233	-7.797	0.101	0.446	0.040	7990.000
19.195	-1.103	-8.254	0.085	0.440	0.032	8000.000
20.249	-0.623	-8.239	0.080	0.433	0.059	8000.000
19.178	-0.869	-8.504	0.084	0.438	0.034	8000.000
18.759	-1.067	-10.896	0.088	0.419	0.066	8000.000
15.417	-0.921	-12.041	0.089	0.429	0.016	7993.000
5.631	-0.209	-26.783	0.093	0.356	0.014	7993.000
2.659	0.236	-31.601	0.102	0.331	0.013	7993.000
-8.531	0.273	-35.302	0.098	0.272	-0.022	7655.000
-12.799	1.458	-34.444	0.071	0.061	-0.047	7486.000
-12.886	0.763	-36.704	0.095	0.092	-0.032	7486.000
-13.311	-0.365	-32.736	0.100	0.129	-0.056	7486.000
-11.200	-0.344	-31.844	0.116	0.092	-0.036	7486.000
-14.088	-0.237	-33.963	0.122	0.088	-0.045	6539.000
-8.318	-0.412	-30.257	0.117	0.086	-0.054	6368.000
-12.178	-1.539	-32.170	0.112	0.097	-0.035	6368.000
-10.657	-0.664	-31.064	0.117	0.135	-0.031	6368.000
-7.051	-0.898	-29.651	0.103	0.083	-0.039	5034.000
-3.686	-0.748	-28.952	0.119	0.094	-0.024	4913.000
-4.072	-0.901	-27.991	0.111	0.138	-0.011	4913.000
-7.013	0.494	-28.954	0.122	0.074	-0.074	4913.000
-6.106	-0.747	-30.033	0.095	0.002	0.030	3248.000
-8.626	-0.595	-26.792	0.086	-0.006	-0.041	2772.000
-4.934	0.672	-22.531	0.072	-0.039	-0.042	2772.000
-11.116	-0.247	-22.479	0.054	-0.113	-0.037	2772.000
-10.351	0.099	-22.812	0.075	-0.206	-0.003	1616.000
-12.385	0.256	-27.486	0.093	-0.151	-0.040	1395.000
-9.089	0.220	-24.119	0.091	-0.117	-0.036	1206.000
-9.468	-0.357	-21.890	0.077	-0.111	-0.039	1206.000
-9.383	0.389	-23.229	0.067	-0.133	-0.006	1206.000
-9.708	0.233	-20.901	0.071	-0.145	-0.033	414.000
-8.896	-0.562	-17.128	0.059	-0.120	-0.036	368.000
-11.787	-0.075	-16.718	0.056	-0.106	-0.039	368.000
-6.586	1.276	-20.567	0.078	-0.216	-0.025	368.000
-11.602	-0.331	-20.620	0.069	-0.124	-0.052	368.000
-9.001	0.159	-19.009	0.073	-0.172	-0.020	368.000
-8.668	-0.014	-20.702	0.071	-0.144	-0.038	0.000
-7.163	-0.411	-17.197	0.065	-0.099	-0.023	7.000
-5.918	-0.745	-17.860	0.076	-0.068	-0.022	16.000
2.084	-1.064	-18.057	0.072	0.141	-0.027	16.000
6.029	-1.293	-17.778	0.115	0.087	0.030	16.000
12.876	-1.378	-18.860	0.088	0.329	0.037	356.000
10.791	-0.448	-17.622	0.047	0.338	0.023	356.000
16.422	0.626	-17.283	0.051	0.377	0.037	540.000
14.209	-1.001	-17.082	0.047	0.391	0.043	540.000
15.228	0.192	-17.703	0.049	0.379	0.052	1165.000
14.079	0.078	-18.529	0.050	0.380	0.029	1407.000
16.154	0.047	-18.664	0.059	0.366	0.053	1779.000
15.734	-0.436	-17.075	0.063	0.383	0.048	1779.000
17.046	0.025	-16.398	0.058	0.380	0.062	1779.000
16.634	-0.418	-15.870	0.055	0.389	0.036	2936.000
16.350	0.146	-16.939	0.070	0.380	0.057	3058.000
16.998	-0.452	-15.885	0.081	0.386	0.055	3058.000
18.115	-0.425	-13.385	0.067	0.400	0.066	4253.000
16.236	0.028	-16.606	0.064	0.385	0.019	4253.000
19.095	-1.185	-12.729	0.090	0.401	0.087	4253.000
17.750	-0.842	-12.936	0.084	0.408	0.040	4253.000
21.193	-0.722	-8.652	0.066	0.425	0.049	4253.000
20.285	-0.411	-9.820	0.046	0.419	0.063	6306.000
19.263	-0.483	-9.328	0.045	0.430	0.031	6587.000
20.903	-0.622	-7.806	0.041	0.433	0.047	6587.000
21.458	-0.980	-6.065	0.038	0.446	0.033	6587.000
20.039	-1.202	-6.032	0.043	0.453	0.062	7357.000
22.382	-0.709	-6.058	0.053	0.441	0.033	7572.000
20.455	-0.497	-7.887	0.067	0.434	0.068	7572.000
16.197	-3.408	-8.097	0.070	0.460	0.012	7810.000
22.313	-0.141	-10.328	0.083	0.403	0.078	7810.000
16.459	-2.087	-9.191	0.086	0.448	0.025	7979.000
21.890	-1.080	-9.035	0.088	0.418	0.063	8000.000
19.551	-0.836	-7.929	0.076	0.440	0.046	8000.000
20.136	-0.624	-8.202	0.077	0.434	0.055	8000.000
17.145	-1.176	-10.686	0.087	0.430	0.032	7997.000
8.647	-0.906	-17.200	0.085	0.420	0.037	7997.000
-0.936	-0.914	-29.211	0.095	0.371	-0.004	7997.000
-2.045	0.987	-29.981	0.105	0.307	-0.012	7729.000
-14.176	-0.016	-34.687	0.067	0.099	-0.020	7690.000
-13.772	0.745	-32.442	0.093	0.072	-0.029	7690.000
-12.477	-0.428	-32.318	0.091	0.107	-0.036	7690.000
-13.462	0.480	-31.772	0.099	0.050	-0.052	7103.000
-10.607	-0.387	-31.552	0.111	0.063	-0.042	6678.000
-9.460	-0.611	-28.995	0.118	0.090	-0.040	6506.000
-14.636	-0.747	-31.312	0.106	0.075	-0.043	6246.000
-9.765	0.711	-31.075	0.105	0.003	-0.043	6246.000
-13.883	-0.862	-31.189	0.087	0.027	-0.017	5475.000
-8.485	1.329	-28.586	0.116	0.090	-0.043	5114.000
-9.512	-0.770	-29.879	0.113	0.153	-0.043	5114.000
-6.281	-0.119	-29.235	0.098	0.027	-0.016	5114.000
-11.685	-0.236	-25.877	0.088	-0.011	0.004	3483.000
-4.777	0.611	-20.630	0.076	-0.035	-0.069	3483.000
-8.340	-0.209	-22.567	0.040	-0.041	0.010	2536.000
-6.849	-0.067	-26.856	0.076	-0.037	-0.033	2204.000
-4.343	-0.287	-25.355	0.123	0.025	-0.035	2204.000
-7.870	-0.950	-21.769	0.099	-0.072	-0.013	1423.000
-9.797	0.295	-23.552	0.058	-0.153	-0.016	1233.000
-12.159	0.995	-26.782	0.077	-0.192	-0.012	1233.000
-9.699	0.816	-25.358	0.081	-0.193	-0.038	1233.000
-10.935	0.144	-22.961	0.076	-0.148	-0.040	508.000
-9.659	0.441	-21.103	0.064	-0.117	-0.019	508.000
-9.525	-1.235	-17.552	0.055	-0.132	-0.028	186.000
-12.620	-1.087	-16.370	0.054	-0.119	-0.037	186.000
-6.985	1.099	-16.726	0.062	-0.150	-0.024	186.000
-8.716	-0.448	-17.460	0.058	-0.143	-0.036	186.000
-6.914	0.208	-18.018	0.077	-0.100	-0.025	0.000
-6.037	-0.499	-19.362	0.074	-0.059	-0.025	22.000
-2.277	-0.327	-17.158	0.074	0.002	-0.020	22.000
-0.927	-1.191	-18.567	0.069	0.148	0.002	144.000
12.041	-1.243	-19.063	0.085	0.173	0.048	232.000
12.455	-1.941	-20.225	0.064	0.376	0.016	232.000
16.130	0.407	-18.332	0.051	0.369	0.051	232.000
14.894	-0.804	-16.893	0.055	0.390	0.034	851.000
17.727	-0.040	-18.512	0.057	0.360	0.030	851.000
15.143	-0.008	-16.312	0.058	0.391	0.065	1310.000
17.643	0.190	-17.381	0.054	0.370	0.037	1579.000
16.138	-0.380	-17.777	0.053	0.374	0.056	1579.000
17.366	-0.345	-17.121	0.070	0.373	0.062	2235.000
19.144	-0.662	-15.196	0.067	0.381	0.040	2743.000
20.095	-0.404	-14.411	0.053	0.382	0.059	2743.000
18.020	-0.026	-14.324	0.067	0.394	0.037	2743.000
18.630	-0.823	-14.350	0.081	0.389	0.093	4176.000
21.282	-0.616	-12.045	0.064	0.397	0.031	4370.000
18.587	-0.508	-12.740	0.061	0.403	0.071	4864.000
19.483	-0.946	-12.253	0.089	0.403	0.069	5404.000
19.153	-0.803	-11.646	0.102	0.411	0.054	5404.000
20.315	-1.047	-9.554	0.081	0.422	0.049	5404.000
21.830	-0.525	-7.354	0.056	0.432	0.054	6566.000
20.584	-0.495	-8.331	0.057	0.431	0.052	6823.000
22.598	-0.908	-5.097	0.048	0.448	0.032	7063.000
21.810	-0.660	-5.733	0.057	0.446	0.052	7063.000
22.837	-0.585	-8.037	0.052	0.421	0.064	7063.000
20.919	-0.766	-7.369	0.081	0.437	0.045	7063.000
16.451	-1.553	-9.336	0.070	0.445	0.049	7774.000
22.622	-0.409	-13.463	0.079	0.376	0.059	7774.000
16.877	-1.766	-6.012	0.088	0.471	0.038	7932.000
21.769	-1.074	-10.411	0.104	0.407	0.066	7970.000
21.684	-1.118	-6.836	0.084	0.438	0.060	7970.000
20.035	-1.115	-8.104	0.068	0.437	0.036	7970.000
20.232	-0.882	-8.174	0.080	0.434	0.061	8000.000
15.901	-0.684	-12.251	0.087	0.423	0.039	7998.000
13.040	-0.326	-20.163	0.098	0.372	0.030	7974.000
4.587	0.076	-23.954	0.108	0.386	-0.006	7827.000
-2.267	0.465	-35.543	0.103	0.324	-0.010	7719.000
-14.603	2.788	-36.685	0.093	0.073	-0.020	7719.000
-12.748	1.155	-33.911	0.103	0.077	-0.048	7719.000
-14.338	-0.286	-31.546	0.104	0.098	-0.037	7719.000
-14.521	-0.094	-35.066	0.111	0.053	-0.053	7142.000
-12.954	-0.557	-32.596	0.119	0.073	-0.049	6799.000
-15.464	-0.481	-33.195	0.115	0.118	-0.051	6799.000
-9.529	-0.714	-30.850	0.109	0.048	-0.034	6025.000
-10.610	0.358	-30.165	0.119	-0.020	-0.052	5716.000
-15.074	-0.989	-29.527	0.100	0.102	-0.046	5716.000
-10.052	0.883	-30.059	0.075	-0.080	-0.019	5716.000
-10.887	-0.841	-32.920	0.107	0.107	-0.056	4305.000
1.193	-0.644	-28.766	0.135	0.185	-0.012	4305.000
-3.283	-1.665	-24.419	0.122	0.032	-0.035	4305.000
-4.073	-0.672	-22.761	0.090	-0.020	0.015	2924.000
-8.326	1.077	-20.918	0.059	-0.021	-0.085	2805.000
-9.599	1.020	-22.911	0.058	-0.030	-0.032	2805.000
-3.417	-0.101	-22.358	0.087	-0.063	0.001	2805.000
-5.561	-1.388	-20.770	0.102	0.017	-0.053	2805.000
-9.623	0.046	-20.451	0.086	-0.105	-0.027	1168.000
-11.414	0.358	-21.600	0.053	-0.185	-0.027	943.000
-11.368	-0.139	-20.789	0.065	-0.148	-0.016	800.000
-7.010	-0.719	-19.507	0.076	-0.108	-0.020	800.000
-7.496	0.403	-21.311	0.080	-0.095	-0.051	305.000
-8.715	0.109	-20.965	0.082	-0.108	-0.028	270.000
-2.403	0.961	-19.281	0.075	-0.173	-0.026	90.000
-11.444	-1.229	-20.083	0.072	-0.100	-0.038	90.000
-4.798	0.018	-17.087	0.073	-0.122	-0.028	90.000
-7.528	-0.361	-19.897	0.075	-0.120	-0.030	90.000
-7.895	-0.141	-18.355	0.069	-0.126	-0.033	1.000
-3.938	-0.645	-17.449	0.066	-0.061	-0.020	38.000
-2.241	-1.336	-18.244	0.104	-0.039	-0.017	38.000
-0.002	-2.267	-18.533	0.100	0.145	0.004	38.000
11.592	0.969	-18.870	0.082	0.237	-0.009	279.000
11.557	-0.318	-17.370	0.090	0.353	0.012	381.000
11.828	-0.657	-20.237	0.071	0.377	0.057	381.000
15.874	0.952	-19.338	0.062	0.362	0.042	894.000
13.941	-0.498	-19.230	0.043	0.375	0.028	1075.000
15.484	0.202	-18.155	0.056	0.374	0.060	1075.000
15.232	-0.195	-18.196	0.052	0.376	0.048	1710.000
16.108	-0.428	-17.810	0.047	0.376	0.024	2018.000
16.769	0.139	-16.486	0.056	0.381	0.054	2296.000
18.230	-0.180	-15.573	0.054	0.382	0.046	2694.000
18.002	-0.470	-13.713	0.068	0.399	0.055	2694.000
19.512	0.022	-13.177	0.058	0.396	0.030	3525.000
18.501	-0.084	-14.171	0.051	0.391	0.070	4031.000
20.457	-0.566	-10.633	0.076	0.413	0.028	4031.000
20.682	-0.571	-11.561	0.061	0.401	0.091	4031.000
20.386	-0.622	-11.614	0.048	0.405	0.021	5416.000
20.213	-0.569	-11.215	0.065	0.407	0.087	5982.000
17.732	-0.939	-12.492	0.092	0.411	0.043	5982.000
17.696	-0.909	-12.333	0.113	0.413	0.045	5982.000
16.993	-0.995	-12.509	0.108	0.414	0.078	5982.000
19.458	-0.911	-11.494	0.105	0.410	0.056	7096.000
18.467	-0.897	-11.909	0.104	0.412	0.050	7232.000
18.286	-1.701	-10.585	0.099	0.424	0.066	7523.000
21.807	-0.241	-8.951	0.087	0.418	0.080	7675.000
21.986	-0.458	-11.918	0.088	0.394	0.027	7675.000
15.338	-2.633	-7.878	0.076	0.464	0.056	7675.000
23.263	0.834	-7.454	0.081	0.423	0.041	7965.000
19.878	-1.444	-7.720	0.073	0.440	0.052	7996.000
20.296	-0.500	-8.967	0.090	0.426	0.064	8000.000
19.155	-1.193	-8.267	0.097	0.439	0.048	8000.000
19.822	-0.739	-9.361	0.094	0.426	0.057	8000.000
19.379	-1.046	-8.126	0.086	0.439	0.051	8000.000
15.639	-0.901	-13.494	0.091	0.414	0.039	7997.000
8.212	-0.442	-16.511	0.096	0.429	0.018	7997.000
4.375	-0.203	-32.323	0.098	0.316	0.006	7997.000
-7.432	0.800	-35.410	0.105	0.295	-0.030	7750.000
-12.300	2.795	-31.730	0.060	0.071	-0.049	7527.000
-11.432	-0.057	-35.512	0.095	0.096	-0.032	7385.000
-14.649	-0.009	-34.739	0.113	0.108	-0.044	7332.000
-15.513	-0.709	-35.245	0.117	0.111	-0.044	7332.000
-11.086	-0.896	-29.486	0.117	0.157	-0.042	6620.000
-8.456	0.261	-29.477	0.109	0.053	-0.066	6341.000
-11.994	-0.973	-30.734	0.104	0.184	-0.017	6227.000
-8.004	0.251	-26.895	0.090	0.036	-0.025	6227.000
-6.465	-1.287	-29.291	0.103	0.191	-0.041	6227.000
-7.594	0.507	-24.741	0.101	0.065	-0.019	4901.000
-9.204	-0.193	-23.151	0.072	0.087	-0.029	4901.000
-3.330	0.803	-24.229	0.087	0.013	-0.028	4049.000
-1.957	-0.488	-26.457	0.101	0.157	-0.001	3551.000
-7.589	-0.373	-26.642	0.099	0.044	-0.024	3551.000
-3.574	-0.258	-16.813	0.079	-0.045	-0.021	3551.000
-6.362	-0.060	-21.528	0.065	0.023	-0.029	3551.000
-6.616	0.035	-22.122	0.078	0.021	-0.020	1785.000
-0.921	-0.755	-16.099	0.074	-0.008	-0.021	1504.000
-2.450	-0.499	-19.267	0.057	-0.027	0.006	1303.000
-5.843	-0.404	-18.640	0.071	-0.044	-0.037	1303.000
-6.688	-0.641	-17.010	0.056	-0.032	-0.016	655.000
-5.411	0.028	-22.353	0.073	-0.070	-0.006	491.000
-5.491	-0.727	-17.880	0.060	-0.065	-0.035	446.000
-6.719	0.287	-16.727	0.068	-0.004	-0.021	446.000
-2.719	0.735	-18.797	0.077	-0.064	-0.034	446.000
-12.080	-0.673	-18.788	0.066	-0.080	-0.034	34.000
-4.811	0.044	-15.948	0.061	-0.059	-0.029	0.000
-7.212	-0.359	-16.864	0.065	-0.107	-0.026	0.000
-6.804	-0.129	-16.191	0.063	-0.111	-0.018	0.000
-6.308	-0.360	-16.656	0.059	-0.089	-0.024	0.000
-4.493	-0.576	-15.895	0.069	-0.048	-0.022	16.000
1.397	-0.812	-18.702	0.077	0.079	-0.014	56.000
4.334	-1.451	-17.826	0.120	0.100	0.015	56.000
3.390	-2.886	-21.888	0.073	0.386	0.033	56.000
14.247	-0.532	-20.445	0.062	0.279	0.034	398.000
13.330	0.084	-20.935	0.090	0.362	0.055	438.000
15.945	-0.149	-20.713	0.063	0.350	0.055	438.000
16.563	0.185	-17.294	0.063	0.378	0.009	438.000
17.106	-0.150	-18.309	0.059	0.363	0.094	1280.000
18.151	-0.190	-15.646	0.057	0.383	0.023	1615.000
20.408	-0.310	-14.729	0.058	0.377	0.063	1615.000
18.566	0.283	-15.249	0.054	0.382	0.056	1615.000
18.943	-0.467	-15.347	0.063	0.380	0.053	2531.000
19.469	-0.185	-15.258	0.069	0.378	0.052	2956.000
19.824	-0.441	-14.302	0.069	0.384	0.059	2956.000
20.483	-0.722	-11.430	0.060	0.406	0.027	4016.000
19.145	0.072	-14.431	0.062	0.384	0.097	4155.000
19.942	-1.082	-10.606	0.075	0.416	0.037	4155.000
19.805	-0.731	-10.106	0.067	0.419	0.075	4155.000
22.524	-0.607	-7.831	0.051	0.425	0.033	5811.000
19.406	-0.322	-12.152	0.053	0.404	0.058	5908.000
20.637	-0.621	-9.851	0.086	0.417	0.061	5908.000
18.589	-0.800	-11.970	0.088	0.411	0.048	5908.000
18.771	-1.342	-10.518	0.087	0.422	0.055	7080.000
21.383	-1.245	-8.961	0.087	0.421	0.068	7284.000
21.733	-0.684	-7.796	0.091	0.429	0.065	7284.000
22.324	-1.388	-6.086	0.076	0.441	0.060	7633.000
21.773	-0.343	-7.180	0.087	0.433	0.078	7767.000
25.901	-0.292	-11.824	0.083	0.373	0.058	7767.000
19.512	-1.322	-7.343	0.070	0.444	0.083	7767.000
22.658	-0.393	-4.436	0.080	0.453	0.034	7767.000
19.343	-1.457	-9.506	0.078	0.427	0.072	8000.000
17.535	-0.744	-11.664	0.087	0.420	0.034	7999.000
12.301	-0.198	-19.229	0.105	0.383	0.040	7925.000
6.271	-0.371	-24.598	0.110	0.372	-0.008	7899.000
-3.422	-0.560	-34.797	0.094	0.328	-0.010	7899.000
-13.842	2.811	-32.398	0.083	0.045	-0.013	7899.000
-15.718	0.242	-34.333	0.086	0.073	-0.061	7426.000
-13.191	0.733	-31.576	0.097	0.049	-0.030	7274.000
-13.797	-0.554	-32.557	0.101	0.058	-0.049	7145.000
-17.017	-0.512	-32.799	0.107	0.104	-0.045	7145.000
-9.960	0.203	-30.266	0.106	0.055	-0.031	7145.000
-9.441	-0.571	-29.558	0.101	0.043	-0.053	6007.000
-13.458	-1.456	-30.137	0.104	0.062	-0.029	5684.000
-6.096	0.317	-29.522	0.131	0.066	-0.060	5684.000
-10.439	-1.311	-27.935	0.102	0.138	-0.017	5684.000
-5.014	0.686	-27.160	0.113	-0.017	-0.038	4295.000
-4.181	-1.863	-21.910	0.082	0.067	0.012	3963.000
-11.559	0.062	-20.570	0.069	-0.082	-0.017	3656.000
-9.023	0.777	-22.661	0.072	0.011	-0.059	3656.000
-7.930	0.744	-28.772	0.063	-0.086	0.021	3656.000
-6.539	-1.424	-24.399	0.101	0.053	-0.044	2167.000
-3.645	-0.579	-19.389	0.083	0.003	-0.023	1982.000
-8.623	-0.615	-25.275	0.078	-0.124	0.005	1982.000
-7.936	-0.561	-23.865	0.090	-0.068	-0.039	1982.000
-8.416	0.277	-22.755	0.081	-0.129	-0.020	943.000
-10.843	0.086	-21.157	0.060	-0.145	-0.025	791.000
-7.504	0.283	-18.700	0.063	-0.151	-0.041	660.000
-9.679	0.626	-19.629	0.063	-0.154	-0.026	660.000
-8.492	0.799	-18.656	0.066	-0.154	-0.027	242.000
-4.527	0.897	-18.299	0.080	-0.166	-0.029	116.000
-10.049	-1.449	-17.734	0.055	-0.111	-0.021	73.000
-5.464	0.150	-18.062	0.074	-0.095	-0.048	73.000
-7.793	-0.116	-20.575	0.078	-0.095	-0.023	73.000
-7.223	-0.159	-18.528	0.067	-0.106	-0.033	2.000
-6.348	-0.765	-17.197	0.074	-0.099	-0.011	25.000
-0.700	-0.718	-18.061	0.064	0.005	0.009	25.000
7.758	-1.071	-17.524	0.071	0.091	0.013	25.000
9.352	-1.791	-21.209	0.076	0.333	0.047	334.000
14.965	-0.451	-19.068	0.052	0.358	0.043	444.000
13.876	-0.615	-17.655	0.037	0.389	0.028	619.000
16.076	0.140	-18.918	0.053	0.364	0.058	619.000
15.007	-0.232	-17.167	0.062	0.386	0.028	619.000
14.819	-0.025	-19.167	0.056	0.369	0.057	1358.000
14.046	-0.374	-19.405	0.064	0.373	0.030	1358.000
15.890	-0.066	-18.343	0.067	0.370	0.068	1358.000
17.111	-0.234	-16.956	0.062	0.377	0.041	2650.000
18.541	-0.350	-16.082	0.073	0.376	0.053	2650.000
18.050	-0.179	-14.623	0.058	0.391	0.055	2650.000
18.289	-0.468	-15.179	0.065	0.386	0.031	2650.000
18.460	-0.775	-13.141	0.085	0.401	0.068	4398.000
17.550	-0.421	-14.322	0.066	0.396	0.065	4558.000
18.067	-0.305	-13.330	0.070	0.403	0.030	4558.000
17.161	-0.853	-14.893	0.088	0.392	0.098	4558.000
19.172	-1.491	-10.868	0.096	0.419	0.013	6095.000
20.295	-0.656	-9.511	0.089	0.421	0.090	6294.000
20.483	-0.865	-8.476	0.066	0.430	0.053	6294.000
21.068	-0.864	-7.553	0.065	0.436	0.030	6294.000
19.362	-1.321	-8.411	0.074	0.436	0.070	7166.000
19.813	-0.873	-9.228	0.069	0.428	0.046	7457.000
20.545	-0.697	-7.989	0.069	0.434	0.048	7507.000
19.549	-1.019	-8.952	0.083	0.431	0.060	7507.000
14.574	-0.665	-7.949	0.085	0.466	0.055	7826.000
15.942	0.165	-9.692	0.092	0.444	0.034	7826.000
18.332	-0.835	-10.370	0.078	0.425	0.070	7826.000
20.517	-1.153	-6.507	0.082	0.447	0.039	7826.000
19.076	-1.258	-8.543	0.077	0.438	0.037	8000.000
18.162	-0.988	-10.341	0.077	0.427	0.054	7997.000
13.597	-0.367	-17.427	0.090	0.392	0.024	7944.000
6.045	-1.176	-23.467	0.099	0.383	-0.011	7944.000
-1.991	-0.923	-32.555	0.110	0.349	-0.002	7944.000
-10.019	0.660	-36.011	0.076	0.212	-0.013	7629.000
-14.030	-0.044	-33.804	0.097	0.109	-0.060	7477.000
-15.876	-0.014	-34.236	0.105	0.098	-0.038	7477.000
-11.681	0.171	-32.430	0.101	0.030	-0.048	7477.000
-13.378	-0.533	-33.980	0.120	0.142	-0.040	6800.000
-11.197	-0.496	-29.333	0.108	0.105	-0.060	6713.000
-9.691	0.126	-32.216	0.116	0.037	-0.019	6713.000
-12.119	-0.986	-29.095	0.091	0.068	-0.055	6713.000
-6.968	-0.625	-27.124	0.108	0.090	-0.015	6713.000
-9.249	0.302	-26.858	0.096	-0.006	-0.055	4989.000
-11.580	-1.272	-27.817	0.088	0.000	-0.025	4989.000
-4.482	0.458	-27.366	0.100	0.037	-0.012	4218.000
-8.337	-1.675	-25.153	0.090	0.014	-0.014	3954.000
-6.420	-0.965	-24.722	0.110	0.068	-0.066	3201.000
-7.839	0.267	-29.383	0.085	-0.032	0.034	2780.000
-7.625	-1.197	-24.827	0.077	0.026	-0.056	2780.000
-1.500	0.227	-20.781	0.085	0.048	-0.032	2780.000
-4.533	-1.008	-25.263	0.083	-0.032	0.012	1617.000
-5.539	-0.891	-25.284	0.091	0.002	-0.038	1368.000
-6.344	0.298	-18.005	0.072	-0.075	-0.036	1013.000
-8.393	0.184	-18.290	0.051	-0.111	-0.024	769.000
-7.138	0.017	-19.053	0.062	-0.129	-0.030	769.000
-8.648	-0.510	-21.268	0.085	-0.104	-0.010	769.000
-7.130	0.008	-19.309	0.072	-0.138	-0.050	261.000
-3.228	1.159	-15.862	0.072	-0.143	-0.026	213.000
-10.128	-0.143	-19.579	0.065	-0.052	-0.029	62.000
-5.239	-0.077	-18.171	0.063	-0.114	-0.033	28.000
-6.875	-0.284	-20.324	0.070	-0.098	-0.029	28.000
-8.677	-0.298	-18.480	0.069	-0.126	-0.036	28.000
-8.842	-0.126	-18.503	0.064	-0.156	-0.026	28.000
-8.779	0.146	-20.011	0.071	-0.155	-0.029	2.000
-3.078	-0.510	-22.123	0.083	-0.019	-0.020	19.000
-0.569	-0.920	-24.065	0.116	0.023	-0.018	19.000
7.195	-1.841	-22.044	0.125	0.105	0.031	19.000
9.887	-2.680	-25.401	0.075	0.336	0.050	267.000
16.345	-0.140	-23.107	0.084	0.319	0.055	434.000
15.909	-0.783	-18.948	0.079	0.367	0.043	666.000
17.801	0.344	-19.936	0.069	0.346	0.066	813.000
17.718	-0.646	-16.192	0.075	0.380	0.034	813.000
18.866	-0.231	-17.672	0.061	0.360	0.072	813.000
18.463	-0.153	-15.328	0.061	0.383	0.045	1638.000
18.497	0.208	-17.101	0.058	0.368	0.040	1982.000
19.184	-0.376	-15.265	0.069	0.379	0.057	2246.000
20.495	-0.588	-14.243	0.060	0.380	0.085	2246.000
21.041	-0.608	-12.544	0.069	0.395	-0.000	2246.000
22.102	-0.312	-11.307	0.062	0.396	0.091	3716.000
20.175	-0.182	-13.162	0.061	0.392	0.042	3716.000
21.201	-1.101	-11.599	0.079	0.401	0.046	3716.000
22.150	-0.836	-10.023	0.073	0.407	0.080	5011.000
22.796	-0.268	-9.496	0.056	0.409	0.040	5494.000
21.422	-0.611	-10.061	0.064	0.410	0.080	5604.000
20.480	-0.904	-10.743	0.088	0.412	0.043	5604.000
19.023	-1.306	-11.168	0.105	0.415	0.071	5604.000
19.044	-1.559	-11.049	0.110	0.417	0.052	5604.000
19.363	-1.187	-11.301	0.100	0.412	0.063	5604.000
20.631	-1.155	-9.815	0.100	0.417	0.079	5604.000
20.902	-1.241	-6.696	0.087	0.444	0.037	7582.000
21.199	-1.083	-7.730	0.087	0.432	0.074	7705.000
20.528	0.810	-11.000	0.097	0.408	0.046	7809.000
21.553	-0.711	-7.289	0.092	0.436	0.024	7809.000
23.490	-0.950	-6.747	0.070	0.428	0.086	7978.000
21.631	-0.833	-6.009	0.082	0.445	0.040	7986.000
20.509	-1.076	-9.232	0.093	0.423	0.070	8000.000
14.294	-1.143	-16.037	0.096	0.400	0.032	7965.000
9.797	-0.350	-20.999	0.103	0.382	0.028	7912.000
-1.427	-0.144	-30.863	0.104	0.360	-0.021	7770.000
-5.585	1.584	-35.727	0.099	0.280	-0.012	7673.000
-16.325	2.593	-35.799	0.107	0.039	-0.079	7569.000
-12.859	-0.093	-34.777	0.115	0.052	-0.024	7569.000
-17.267	-0.723	-35.110	0.112	0.080	-0.057	7569.000
-12.896	-0.803	-34.153	0.122	0.104	-0.051	6772.000
-11.763	-0.250	-30.897	0.109	0.091	-0.048	6706.000
-13.754	-0.156	-33.341	0.122	0.073	-0.041	6169.000
-9.510	-0.468	-33.104	0.106	0.019	-0.037	6045.000
-6.274	-0.834	-28.785	0.123	0.067	-0.033	6045.000
-9.408	-1.568	-31.018	0.114	0.135	-0.029	6045.000
-3.331	0.120	-30.053	0.130	0.085	-0.059	4741.000
-7.753	-1.779	-28.288	0.105	0.112	-0.018	4376.000
-4.801	-0.257	-23.625	0.108	-0.028	0.012	4376.000
-5.927	-0.672	-25.427	0.090	0.071	-0.085	4376.000
-8.677	0.636	-26.094	0.091	0.043	0.007	2793.000
-6.053	-0.882	-28.090	0.081	-0.029	-0.033	2407.000
-8.256	-0.832	-22.968	0.083	-0.034	-0.010	2407.000
-5.692	0.938	-18.989	0.059	-0.086	-0.049	2407.000
-9.418	-0.320	-19.628	0.047	-0.123	-0.037	1392.000
-11.635	0.319	-21.503	0.067	-0.202	0.000	998.000
-8.332	-0.799	-17.864	0.065	-0.119	-0.025	998.000
-7.171	-0.484	-19.933	0.079	-0.089	-0.028	998.000
-5.923	0.038	-21.502	0.082	-0.078	-0.037	432.000
-6.559	-0.481	-22.716	0.088	-0.062	-0.023	268.000
-8.306	-1.493	-23.148	0.084	-0.072	-0.045	268.000
-4.368	-0.062	-18.320	0.076	-0.139	-0.014	268.000
-8.999	-0.142	-21.195	0.075	-0.087	-0.048	268.000
-8.486	-0.311	-20.163	0.070	-0.125	-0.030	0.000
-7.090	-0.135	-17.966	0.071	-0.096	-0.027	10.000
-2.097	-1.106	-19.195	0.095	0.017	-0.032	10.000
1.238	-2.365	-18.262	0.122	0.026	0.008	10.000
7.077	1.594	-18.545	0.102	0.143	0.000	203.000
11.444	1.497	-19.735	0.083	0.383	-0.004	304.000
13.996	-1.834	-20.948	0.085	0.360	0.055	528.000
18.718	-0.363	-17.177	0.076	0.366	0.046	577.000
18.006	-0.413	-18.033	0.044	0.362	0.051	577.000
19.475	0.104	-15.229	0.069	0.378	0.044	577.000
19.065	-0.468	-16.102	0.070	0.373	0.060	577.000
20.082	-0.390	-15.880	0.059	0.370	0.031	1892.000
19.438	-0.200	-15.614	0.062	0.374	0.073	1983.000
22.526	-0.566	-13.104	0.065	0.381	0.042	2600.000
20.864	-0.355	-13.847	0.063	0.382	0.065	2600.000
23.469	-0.783	-11.665	0.081	0.387	0.063	3510.000
23.198	-0.692	-11.718	0.061	0.389	0.027	3510.000
20.707	-0.604	-12.058	0.067	0.396	0.105	3510.000
23.319	-0.824	-7.965	0.077	0.421	0.026	3510.000
23.007	-0.946	-9.741	0.067	0.405	0.072	5441.000
22.355	-0.347	-10.133	0.059	0.406	0.057	5551.000
19.909	-0.757	-12.224	0.072	0.402	0.037	5551.000
19.730	-1.367	-11.918	0.111	0.405	0.075	5551.000
17.456	-1.539	-14.060	0.135	0.399	0.080	6745.000
19.702	-1.251	-12.989	0.129	0.396	0.075	7014.000
19.083	-1.421	-13.799	0.117	0.393	0.059	7166.000
18.142	-1.069	-10.184	0.099	0.428	0.066	7450.000
22.647	-1.466	-8.558	0.097	0.419	0.055	7554.000
19.589	-1.487	-7.311	0.097	0.446	0.048	7554.000
14.528	-3.276	-6.552	0.092	0.481	0.019	7554.000
23.536	-0.327	-3.961	0.090	0.452	0.034	7915.000
20.911	-0.938	-5.231	0.074	0.455	0.051	7915.000
22.057	-0.564	-8.876	0.093	0.418	0.052	8000.000
19.233	-1.466	-10.318	0.102	0.422	0.046	7999.000
14.166	-0.950	-16.779	0.111	0.395	0.035	7999.000
5.665	0.305	-29.710	0.111	0.330	0.019	7859.000
-9.725	-1.531	-34.499	0.098	0.375	-0.032	7828.000
-8.885	2.145	-38.758	0.086	0.244	-0.012	7828.000
-17.025	1.362	-39.274	0.072	0.109	-0.080	7405.000
-15.461	1.456	-41.765	0.101	0.107	-0.049	7230.000
-16.290	0.349	-41.462	0.114	0.109	-0.064	7171.000
-13.696	0.262	-39.372	0.142	0.141	-0.052	7171.000
-16.345	-0.841	-39.411	0.139	0.087	-0.051	7171.000
-14.145	-1.517	-34.788	0.123	0.019	-0.039	6087.000
-14.646	0.263	-35.522	0.123	0.013	-0.048	5777.000
-18.231	-0.088	-34.480	0.108	-0.003	-0.050	5379.000
-8.661	0.943	-32.209	0.127	0.004	-0.043	4873.000
-13.439	-1.172	-32.600	0.113	0.118	-0.043	4406.000
-8.472	0.391	-32.996	0.105	-0.064	-0.039	4124.000
-10.175	-1.301	-31.537	0.090	0.089	0.009	4124.000
-8.301	0.103	-32.162	0.093	-0.030	-0.049	4124.000
-10.068	0.423	-27.378	0.107	-0.074	-0.078	2589.000
-13.657	0.398	-28.329	0.093	-0.098	-0.013	2379.000
-9.200	0.898	-21.846	0.075	-0.099	-0.084	2379.000
-11.469	0.397	-22.848	0.076	-0.129	-0.029	2379.000
-9.301	0.824	-22.632	0.077	-0.068	-0.065	1227.000
-8.141	-0.040	-24.212	0.065	-0.089	0.013	1036.000
-7.599	0.051	-22.561	0.091	-0.053	-0.027	1036.000
-7.708	0.158	-19.083	0.072	-0.088	-0.040	564.000
-7.563	0.239	-23.057	0.075	-0.100	-0.021	417.000
-7.333	-0.530	-21.568	0.067	-0.115	-0.027	244.000
-7.398	-0.384	-22.839	0.073	-0.109	-0.027	134.000
-7.548	-0.368	-18.561	0.069	-0.169	-0.017	105.000
-10.173	0.175	-19.223	0.078	-0.161	-0.028	105.000
-9.485	-0.605	-19.061	0.066	-0.145	-0.034	105.000
-7.118	-0.033	-19.481	0.074	-0.107	-0.028	2.000
-3.779	-1.236	-20.675	0.094	-0.001	-0.018	46.000
-0.982	-1.095	-21.288	0.095	0.007	0.005	116.000
-0.663	-2.144	-19.816	0.094	0.188	-0.023	116.000
17.621	-0.220	-17.939	0.120	0.367	0.020	116.000
14.262	-0.051	-20.522	0.081	0.361	0.047	527.000
17.743	0.387	-20.380	0.047	0.344	0.029	588.000
16.496	0.027	-16.889	0.056	0.380	0.048	588.000
19.155	-0.241	-16.979	0.068	0.365	0.056	1176.000
18.258	-0.482	-16.166	0.061	0.377	0.041	1176.000
17.716	0.252	-16.689	0.059	0.374	0.064	1176.000
18.173	0.079	-16.366	0.061	0.376	0.030	2272.000
19.801	-0.278	-14.514	0.061	0.382	0.061	2668.000
20.053	-0.429	-13.829	0.070	0.386	0.074	2783.000
22.634	-0.630	-11.467	0.074	0.393	0.054	2783.000
19.775	-0.113	-14.367	0.061	0.383	0.065	4040.000
21.300	-0.388	-12.170	0.071	0.395	0.036	4519.000
23.258	-0.726	-10.305	0.080	0.399	0.078	4641.000
22.591	-0.820	-10.447	0.066	0.402	0.058	4641.000
20.164	-0.417	-11.696	0.077	0.404	0.056	4641.000
19.822	-0.805	-11.062	0.101	0.411	0.066	5923.000
20.865	-1.616	-9.564	0.118	0.419	0.081	6422.000
21.574	-1.397	-9.183	0.115	0.420	0.037	6718.000
21.135	-1.160	-9.575	0.104	0.417	0.081	6977.000
22.465	-0.705	-8.508	0.102	0.420	0.035	6977.000
21.464	-1.121	-6.770	0.092	0.439	0.079	6977.000
22.242	-1.286	-8.009	0.096	0.425	0.050	7600.000
20.596	-1.206	-9.109	0.102	0.423	0.082	7746.000
19.788	-0.626	-9.609	0.094	0.425	0.038	7746.000
21.381	-1.032	-9.643	0.088	0.414	0.091	7746.000
22.311	-1.117	-6.098	0.085	0.441	0.046	7988.000
21.666	-1.747	-7.132	0.076	0.436	0.063	8000.000
17.907	-0.859	-11.144	0.100	0.421	0.060	7999.000
11.639	0.105	-19.541	0.101	0.384	0.033	7999.000
7.872	-0.578	-25.024	0.103	0.360	-0.002	7999.000
-5.678	-1.655	-33.418	0.097	0.362	-0.013	7790.000
-13.422	2.418	-36.014	0.082	0.117	-0.018	7619.000
-19.111	-0.082	-39.518	0.093	0.086	-0.041	7619.000
-15.406	0.832	-33.016	0.097	0.054	-0.040	7619.000
-17.249	-0.464	-36.771	0.109	0.048	-0.044	6949.000
-12.006	-0.194	-29.786	0.101	0.052	-0.062	6949.000
-13.294	-0.058	-32.376	0.102	0.005	-0.018	6949.000
-11.772	-0.569	-28.399	0.093	0.080	-0.070	6136.000
-10.802	-0.562	-30.400	0.109	0.037	-0.039	6136.000
-9.409	-0.588	-27.484	0.124	0.035	-0.024	6136.000
-10.395	-1.320	-29.536	0.101	0.137	-0.053	6136.000
-7.680	0.708	-28.819	0.108	-0.066	-0.004	4363.000
-7.761	-1.873	-27.638	0.095	0.064	-0.054	4258.000
-8.386	-1.485	-27.120	0.091	0.016	-0.002	3400.000
-0.219	-0.289	-24.003	0.109	0.151	-0.088	3294.000
-3.644	-1.428	-27.348	0.102	0.049	0.026	3294.000
-7.692	-1.074	-22.303	0.067	-0.023	-0.016	2080.000
-6.371	0.854	-18.363	0.045	-0.110	-0.058	1770.000
-11.060	0.209	-17.781	0.029	-0.160	0.006	1617.000
-10.186	-0.478	-22.879	0.081	-0.126	-0.025	1617.000
-5.915	0.083	-18.342	0.088	-0.100	-0.027	1617.000
-6.323	-0.421	-23.676	0.071	-0.023	-0.019	674.000
-7.149	0.090	-23.276	0.075	-0.040	-0.035	533.000
-8.442	0.010	-22.665	0.081	-0.105	-0.029	533.000
-6.956	0.559	-21.196	0.083	-0.175	-0.031	533.000
-9.282	0.419	-21.578	0.073	-0.174	-0.039	134.000
-8.342	-0.920	-17.286	0.058	-0.139	-0.014	48.000
-6.024	-0.101	-16.979	0.064	-0.088	-0.048	20.000
-6.947	-0.557	-20.004	0.075	-0.059	-0.022	20.000
-5.888	-0.278	-18.881	0.070	-0.080	-0.032	20.000
-7.663	-0.395	-17.599	0.067	-0.116	-0.017	0.000
-3.090	-0.633	-17.433	0.074	-0.034	-0.020	19.000
-1.431	-1.399	-17.344	0.106	-0.024	-0.014	19.000
3.504	-2.395	-17.020	0.106	0.116	0.018	19.000
8.946	-1.950	-19.239	0.071	0.274	0.027	278.000
10.985	0.307	-19.208	0.075	0.314	0.011	368.000
12.872	-1.211	-21.293	0.072	0.363	0.048	368.000
17.667	0.572	-20.883	0.069	0.340	0.048	368.000
14.555	-0.738	-19.738	0.063	0.368	0.026	1073.000
17.067	0.136	-19.835	0.065	0.351	0.078	1308.000
16.851	-0.457	-18.341	0.064	0.367	0.027	1507.000
19.014	0.080	-17.122	0.066	0.364	0.064	1507.000
19.745	-0.327	-15.591	0.054	0.374	0.055	1507.000
19.924	-0.186	-15.005	0.060	0.378	0.051	2762.000
20.117	-0.645	-13.619	0.069	0.388	0.057	3184.000
22.342	-0.476	-11.884	0.069	0.391	0.063	3184.000
20.860	-0.677	-13.733	0.055	0.384	0.053	3184.000
21.837	-0.715	-10.532	0.076	0.407	0.024	4681.000
21.812	-0.248	-9.456	0.078	0.412	0.099	5172.000
22.924	-0.587	-10.448	0.064	0.402	0.020	5172.000
21.484	-0.549	-11.202	0.063	0.400	0.081	5172.000
19.436	-1.145	-11.259	0.097	0.412	0.058	6252.000
21.022	-1.247	-11.400	0.113	0.403	0.053	6573.000
18.900	-1.071	-11.796	0.124	0.410	0.074	6779.000
19.702	-1.324	-10.740	0.125	0.415	0.070	6779.000
20.853	-0.918	-11.415	0.112	0.403	0.071	6779.000
20.374	-1.411	-7.735	0.101	0.438	0.045	7471.000
22.668	-0.679	-8.024	0.100	0.421	0.084	7656.000
25.534	-0.294	-11.319	0.106	0.379	0.062	7772.000
21.249	-2.150	-5.717	0.091	0.451	0.031	7772.000
26.395	-0.303	-6.055	0.081	0.418	0.081	7772.000
20.216	-1.329	-6.494	0.079	0.449	0.036	8000.000
21.148	-0.891	-8.784	0.103	0.423	0.069	8000.000
20.401	-1.275	-10.213	0.102	0.417	0.041	8000.000
13.669	-0.888	-12.999	0.107	0.428	0.047	8000.000
10.354	-0.196	-22.410	0.105	0.367	0.025	8000.000
-8.875	-1.525	-31.290	0.106	0.397	-0.027	8000.000
-7.185	2.019	-36.458	0.098	0.207	-0.022	7635.000
-15.142	1.667	-38.048	0.097	0.079	-0.054	7501.000
-13.633	0.153	-36.255	0.114	0.126	-0.032	7396.000
-12.803	-0.201	-38.029	0.139	0.147	-0.050	6999.000
-10.184	-0.802	-31.843	0.129	0.125	-0.029	6789.000
-11.257	-0.501	-36.868	0.131	0.178	-0.063	6614.000
-8.062	-0.448	-31.582	0.119	0.045	-0.033	6614.000
-13.678	-1.543	-33.383	0.104	0.111	-0.035	6614.000
-7.494	1.539	-31.000	0.114	0.080	-0.066	6614.000
-14.981	0.277	-31.656	0.103	0.084	-0.032	4950.000
-7.418	0.075	-30.094	0.082	-0.009	-0.024	4511.000
-9.346	-1.038	-32.847	0.093	0.094	-0.019	4511.000
2.723	-0.737	-27.191	0.120	0.177	-0.046	4511.000
-3.927	-2.807	-26.134	0.106	0.068	0.004	3071.000
-6.146	0.263	-23.648	0.090	-0.013	-0.015	2712.000
-5.772	0.723	-22.512	0.054	0.022	-0.070	2350.000
-4.515	-0.170	-20.663	0.059	0.011	0.013	2350.000
-3.011	-0.530	-23.856	0.085	0.008	-0.026	2350.000
-6.411	0.187	-20.444	0.076	-0.064	-0.041	1286.000
-6.439	-0.862	-15.778	0.055	-0.051	-0.008	1089.000
-6.881	0.544	-17.311	0.056	-0.099	-0.023	1089.000
-7.358	0.108	-18.217	0.055	-0.092	-0.034	592.000
-5.134	0.038	-16.294	0.059	-0.055	-0.021	373.000
-5.041	-0.572	-16.734	0.061	-0.005	-0.037	373.000
-4.452	-0.708	-21.851	0.075	-0.072	-0.018	373.000
-6.119	-0.145	-19.878	0.073	-0.117	-0.016	61.000
-8.613	0.111	-18.963	0.070	-0.102	-0.025	41.000
-8.847	-0.265	-17.059	0.056	-0.120	-0.028	0.000
-8.478	0.041	-16.818	0.060	-0.147	-0.022	1.000
-4.938	-0.312	-18.227	0.076	-0.064	-0.014	33.000
0.879	-0.961	-21.526	0.080	0.067	0.005	33.000
7.202	-1.979	-19.314	0.083	0.158	0.027	33.000
9.578	-1.005	-22.675	0.083	0.353	0.070	33.000
15.363	-0.053	-20.647	0.068	0.355	0.028	33.000
13.339	-0.739	-19.452	0.060	0.376	0.028	741.000
16.868	0.477	-19.469	0.064	0.355	0.066	890.000
15.531	-0.316	-18.514	0.069	0.372	0.032	1249.000
18.684	0.340	-18.064	0.065	0.358	0.057	1523.000
18.051	-0.377	-17.129	0.066	0.370	0.040	1857.000
20.193	0.036	-16.638	0.072	0.362	0.066	2217.000
20.392	-0.313	-15.503	0.074	0.372	0.042	2217.000
21.507	-0.193	-14.125	0.086	0.376	0.073	2217.000
22.721	-0.716	-12.439	0.072	0.385	0.052	3502.000
19.981	-0.055	-14.617	0.070	0.380	0.056	3502.000
22.800	-0.908	-10.349	0.086	0.403	0.042	3502.000
23.203	-0.629	-10.569	0.073	0.397	0.076	3502.000
21.935	-0.682	-9.938	0.068	0.410	0.059	5293.000
21.602	-0.615	-10.530	0.092	0.406	0.070	5681.000
21.991	-1.404	-8.469	0.114	0.422	0.079	5681.000
23.316	-1.034	-5.814	0.091	0.438	0.045	5681.000
25.260	-0.806	-4.167	0.074	0.440	0.075	6686.000
25.397	-1.241	-3.400	0.061	0.448	0.026	6778.000
24.712	-1.096	-3.645	0.057	0.447	0.093	6778.000
24.752	-0.452	-5.293	0.070	0.434	0.045	6778.000
24.337	-1.123	-4.792	0.079	0.440	0.072	7589.000
23.047	-1.589	-6.309	0.091	0.435	0.060	7633.000
20.906	0.445	-8.773	0.093	0.423	0.076	7633.000
16.363	-0.508	-7.448	0.093	0.462	0.017	7633.000
22.137	-0.908	-9.097	0.094	0.415	0.088	7988.000
22.712	-1.629	-4.689	0.094	0.452	0.034	8000.000
22.100	-1.133	-7.077	0.086	0.434	0.049	8000.000
21.648	-1.052	-7.483	0.086	0.433	0.054	8000.000
21.328	-0.879	-7.295	0.091	0.436	0.057	8000.000
16.826	-1.054	-13.125	0.099	0.411	0.049	7999.000
11.501	-0.588	-15.721	0.103	0.418	0.014	7920.000
5.912	-1.014	-30.093	0.112	0.327	0.015	7875.000
-6.276	-0.954	-38.058	0.104	0.326	-0.011	7875.000
-14.532	1.868	-37.033	0.063	0.136	-0.033	7875.000
-15.969	-0.459	-39.532	0.100	0.201	-0.050	7390.000
-14.051	1.106	-39.933	0.138	0.088	-0.040	7343.000
-13.911	-0.531	-39.175	0.131	0.128	-0.057	6989.000
-14.660	-0.028	-35.695	0.128	0.111	-0.044	6755.000
-14.174	0.635	-37.814	0.123	0.058	-0.048	6755.000
-10.273	-0.568	-33.766	0.110	0.081	-0.081	6755.000
-13.590	-0.589	-36.178	0.118	0.022	-0.031	5608.000
-5.793	-0.925	-27.381	0.127	0.169	-0.047	5321.000
-11.492	-1.122	-30.675	0.107	-0.007	-0.038	5069.000
-4.011	-0.543	-27.389	0.099	-0.013	-0.016	4377.000
-5.481	-0.504	-24.944	0.100	0.087	-0.027	3977.000
-7.575	-0.816	-24.474	0.093	0.046	-0.041	3325.000
-7.892	0.020	-27.258	0.092	-0.020	-0.033	3037.000
-7.779	-0.653	-25.366	0.106	0.059	-0.026	3037.000
0.960	-0.289	-25.608	0.115	0.067	-0.040	3037.000
-4.498	-1.031	-25.104	0.094	0.052	-0.014	1912.000
-3.701	0.149	-22.890	0.085	0.099	-0.060	1440.000
-5.394	-0.327	-24.861	0.097	-0.100	0.006	1270.000
-7.245	-0.465	-21.575	0.090	-0.024	-0.029	1270.000
-6.638	0.754	-23.510	0.084	-0.054	-0.065	1270.000
-10.291	0.244	-26.130	0.079	-0.147	0.003	492.000
-8.710	-0.174	-22.925	0.079	-0.136	-0.030	350.000
-3.118	-0.092	-18.814	0.087	-0.104	-0.016	350.000
-9.788	-0.302	-19.172	0.079	-0.048	-0.037	131.000
-7.935	0.586	-18.819	0.069	-0.174	-0.030	30.000
-8.080	0.197	-18.735	0.065	-0.087	-0.029	30.000
-9.752	-0.105	-18.599	0.060	-0.131	-0.037	0.000
-8.027	-0.125	-20.443	0.064	-0.132	-0.018	6.000
-5.627	-0.460	-19.112	0.083	-0.069	-0.018	28.000
-0.232	-0.927	-20.376	0.080	0.017	0.004	28.000
7.420	-1.281	-18.846	0.083	0.104	0.012	28.000
10.514	-2.006	-23.658	0.107	0.356	0.056	28.000
17.780	-0.573	-18.845	0.077	0.357	0.048	515.000
16.155	-0.577	-17.455	0.060	0.378	0.025	678.000
17.693	0.457	-19.328	0.063	0.351	0.083	946.000
17.776	-0.326	-16.501	0.068	0.378	0.025	946.000
19.133	0.155	-17.924	0.062	0.356	0.073	946.000
20.201	-0.351	-14.066	0.070	0.385	0.042	1876.000
20.578	0.130	-15.535	0.069	0.369	0.066	1961.000
20.587	-0.215	-14.169	0.072	0.381	0.058	1961.000
20.610	-0.045	-14.460	0.074	0.378	0.069	1961.000
22.143	-0.350	-12.852	0.070	0.384	0.047	3527.000
20.173	-0.545	-14.344	0.072	0.381	0.086	3971.000
21.787	-0.894	-10.346	0.093	0.409	0.013	3971.000
23.734	-0.348	-9.114	0.073	0.404	0.135	4849.000
22.621	-0.674	-10.865	0.063	0.401	-0.012	5223.000
22.899	-0.721	-10.205	0.091	0.401	0.098	5501.000
20.339	-1.479	-10.598	0.103	0.413	0.067	5501.000
22.606	-1.292	-8.354	0.112	0.420	0.054	5501.000
23.150	-1.138	-7.082	0.105	0.428	0.067	6601.000
23.940	-1.172	-6.527	0.094	0.428	0.070	6966.000
22.329	-1.376	-6.714	0.091	0.436	0.046	7245.000
22.407	-0.946	-7.204	0.091	0.430	0.067	7440.000
24.424	-0.951	-5.180	0.095	0.436	0.070	7440.000
23.286	-1.399	-5.758	0.090	0.438	0.063	7440.000
18.039	-0.838	-4.630	0.095	0.475	0.058	7861.000
19.385	-0.461	-9.789	0.105	0.425	0.054	7891.000
19.939	-0.811	-6.089	0.081	0.453	0.060	7988.000
23.983	-0.733	-4.844	0.094	0.442	0.061	7997.000
21.550	-1.464	-8.130	0.102	0.428	0.043	7997.000
21.906	-1.109	-8.237	0.103	0.424	0.070	7997.000
21.919	-1.240	-7.286	0.102	0.433	0.048	8000.000
21.812	-1.380	-8.592	0.108	0.422	0.060	8000.000
18.069	-0.997	-9.491	0.097	0.436	0.030	7960.000
7.561	-0.377	-24.979	0.107	0.361	0.016	7960.000
3.030	-0.071	-31.149	0.117	0.333	0.010	7960.000
-6.954	0.675	-39.260	0.121	0.318	-0.021	7960.000
-14.870	2.516	-42.641	0.083	0.129	-0.041	7599.000
-15.160	0.935	-43.187	0.102	0.118	-0.051	7360.000
-19.892	0.152	-45.507	0.118	0.154	-0.050	7360.000
-15.928	-0.218	-43.866	0.130	0.116	-0.066	7360.000
-16.658	-0.073	-43.324	0.149	0.151	-0.046	6570.000
-10.832	-0.453	-38.629	0.146	0.111	-0.078	6465.000
-15.194	-1.155	-37.914	0.132	0.072	-0.023	6465.000
-12.878	-1.504	-31.996	0.114	0.028	-0.073	6465.000
-4.340	0.540	-32.119	0.137	0.096	-0.037	5104.000
-12.215	-1.647	-31.719	0.124	0.147	-0.012	4674.000
-5.181	0.759	-32.753	0.121	0.033	-0.041	4501.000
-13.193	-0.880	-31.716	0.096	0.045	0.002	3785.000
-6.924	-1.573	-30.337	0.074	-0.009	-0.025	3340.000
-7.808	-0.487	-25.045	0.086	-0.081	-0.081	3340.000
-9.812	-0.324	-25.625	0.089	-0.102	-0.018	3340.000
-7.576	0.261	-23.794	0.074	-0.060	-0.039	2004.000
-11.237	-0.161	-23.127	0.043	-0.184	-0.018	2004.000
-10.078	0.113	-22.602	0.058	-0.118	0.006	2004.000
-4.930	-0.086	-22.138	0.090	-0.016	-0.079	1060.000
-7.859	-0.716	-20.691	0.089	-0.001	0.001	837.000
-6.125	-0.426	-20.412	0.069	-0.084	-0.031	837.000
-7.445	0.032	-22.438	0.075	-0.106	-0.019	837.000
-8.952	0.149	-22.626	0.073	-0.113	-0.050	298.000
-11.757	-0.147	-22.591	0.083	-0.083	-0.066	172.000
-7.163	1.101	-19.729	0.081	-0.201	-0.019	172.000
-12.144	-0.142	-21.412	0.067	-0.126	-0.052	172.000
-9.562	0.078	-17.313	0.072	-0.190	-0.020	0.000
-7.565	-0.255	-19.669	0.075	-0.092	-0.028	0.000
-0.199	-0.510	-19.479	0.084	0.038	-0.013	0.000
2.214	-2.552	-22.210	0.121	0.195	-0.016	120.000
12.223	0.765	-19.456	0.128	0.226	-0.013	120.000
9.495	0.004	-20.155	0.047	0.377	0.052	354.000
16.073	0.432	-20.348	0.075	0.353	0.043	454.000
14.868	-1.062	-18.209	0.082	0.379	0.022	645.000
20.609	-0.317	-18.712	0.065	0.342	0.064	645.000
21.521	-0.199	-14.602	0.059	0.372	0.054	645.000
22.947	-0.360	-14.836	0.063	0.363	0.060	1495.000
23.056	-0.390	-13.489	0.074	0.373	0.070	1495.000
22.795	-0.477	-14.864	0.065	0.364	0.058	2237.000
24.107	-0.566	-11.423	0.067	0.385	0.069	2237.000
22.985	-0.765	-13.379	0.071	0.376	0.038	2237.000
22.238	-0.400	-12.078	0.079	0.389	0.086	2237.000
23.333	-0.341	-11.922	0.090	0.386	0.044	4073.000
24.688	-0.402	-10.062	0.072	0.393	0.082	4565.000
23.315	-1.188	-10.288	0.081	0.400	0.056	4565.000
24.269	-1.384	-7.803	0.099	0.416	0.062	4565.000
25.991	-0.933	-6.859	0.082	0.413	0.085	5720.000
25.537	-0.612	-5.745	0.055	0.427	0.025	6118.000
27.300	-0.137	-3.614	0.049	0.433	0.096	6118.000
24.831	-0.640	-5.926	0.055	0.429	0.042	6118.000
25.888	-0.906	-4.492	0.075	0.435	0.066	7075.000
27.804	-1.389	-2.935	0.078	0.439	0.038	7075.000
26.994	-0.802	-3.624	0.068	0.435	0.095	7075.000
24.936	-1.116	-2.603	0.077	0.457	0.029	7075.000
22.180	-1.276	-6.121	0.086	0.440	0.079	7771.000
21.499	-0.885	-4.597	0.095	0.457	0.057	7806.000
23.445	-1.984	-5.793	0.104	0.438	0.061	7806.000
23.116	-1.814	-8.338	0.103	0.417	0.085	7806.000
22.003	-0.759	-7.973	0.097	0.426	0.051	8000.000
22.075	-1.042	-6.863	0.088	0.435	0.064	8000.000
21.506	-1.419	-7.589	0.094	0.433	0.047	7998.000
14.415	-0.735	-16.544	0.109	0.395	0.043	7982.000
11.432	-0.733	-21.829	0.115	0.367	0.026	7982.000
0.908	-0.042	-30.863	0.127	0.347	-0.010	7982.000
-6.887	1.300	-39.229	0.126	0.318	-0.025	7662.000
-17.435	2.488	-40.696	0.130	0.100	-0.032	7478.000
-15.686	0.080	-44.722	0.147	0.089	-0.049	7283.000
-19.838	-0.279	-44.757	0.144	0.136	-0.044	7089.000
-15.628	-0.566	-41.762	0.136	0.112	-0.057	7089.000
-16.517	-0.526	-37.475	0.119	0.099	-0.053	7089.000
-14.402	-0.058	-37.133	0.128	0.055	-0.059	6339.000
-14.280	-0.837	-35.975	0.139	0.075	-0.048	6107.000
-10.595	-1.282	-33.546	0.133	0.059	-0.026	6107.000
-10.336	-0.396	-30.407	0.124	0.057	-0.039	5049.000
-10.665	0.255	-35.787	0.109	-0.090	-0.009	5049.000
-12.620	-1.352	-33.719	0.099	0.025	-0.032	4125.000
-8.431	0.532	-29.597	0.112	-0.112	-0.040	3885.000
-8.205	-0.048	-28.809	0.091	-0.090	0.011	3885.000
-8.820	-0.015	-27.952	0.089	-0.051	-0.070	3885.000
-7.689	-0.562	-26.859	0.087	-0.013	-0.021	2410.000
-7.594	0.518	-23.445	0.084	-0.085	-0.101	2183.000
-11.287	1.441	-21.729	0.060	-0.112	-0.021	1711.000
-12.153	1.294	-21.986	0.042	-0.186	-0.024	1517.000
-12.759	-0.248	-25.731	0.080	-0.169	-0.045	1517.000
-7.611	0.067	-23.992	0.093	-0.129	-0.043	791.000
-10.338	-0.556	-23.434	0.083	-0.070	-0.015	791.000
-7.871	0.264	-24.234	0.090	-0.130	-0.046	383.000
-8.693	-0.285	-24.615	0.083	-0.131	-0.027	269.000
